Data from 1_mm_pl_70pc_Absorbance__0__16-39-03-522.txt Node

Date: Wed Mar 08 16:39:03 CET 2023
User: Ange
Spectrometer: FLMT08341
Trigger mode: 0
Integration Time (sec): 1.000000E-2
Scans to average: 400
Electric dark correction enabled: true
Nonlinearity correction enabled: false
Boxcar width: 3
XAxis mode: Wavelengths
Number of Pixels in Spectrum: 3648
>>>>>Begin Spectral Data<<<<<
345.271	0.05737431
345.487	0.0514255
345.704	0.04921701
345.921	0.05350269
346.137	0.04696132
346.354	0.0362507
346.571	0.0458024
346.787	-0.0973724
347.004	0.00752198
347.22	0.02227826
347.437	0.08142792
347.653	0.049597
347.87	0.01217436
348.086	0.01901667
348.303	-0
348.519	0.38496564
348.736	0.357711
348.952	0.35157062
349.169	0.36049659
349.385	0.37450164
349.601	0.37260393
349.818	0.36536839
350.034	0.35939575
350.251	0.35561117
350.467	0.35996334
350.683	0.34877173
350.9	0.3473463
351.116	0.34489718
351.332	0.34118927
351.549	0.34921081
351.765	0.36018502
351.981	0.36293466
352.197	0.37842671
352.414	0.39523526
352.63	0.40203216
352.846	0.41533906
353.062	0.41343185
353.278	0.40451336
353.495	0.41409492
353.711	0.41540377
353.927	0.41462469
354.143	0.41457952
354.359	0.40766885
354.575	0.40532702
354.792	0.41569068
355.008	0.40876521
355.224	0.40250287
355.44	0.3960321
355.656	0.39401929
355.872	0.40215926
356.088	0.42184535
356.304	0.42484641
356.52	0.42730596
356.736	0.43250879
356.952	0.43802184
357.168	0.44077007
357.384	0.44400964
357.6	0.42976158
357.816	0.43328201
358.032	0.43966489
358.248	0.44928724
358.464	0.45050644
358.679	0.45587396
358.895	0.45534912
359.111	0.46449376
359.327	0.45704931
359.543	0.46045523
359.759	0.46363052
359.974	0.46438109
360.19	0.46292752
360.406	0.46552746
360.622	0.46165934
360.838	0.46057033
361.053	0.4615595
361.269	0.46357386
361.485	0.4642611
361.701	0.46955521
361.916	0.46381464
362.132	0.465559
362.348	0.47155245
362.563	0.47377086
362.779	0.46957774
362.995	0.47380994
363.21	0.47745507
363.426	0.4812442
363.641	0.48244958
363.857	0.48606785
364.073	0.48390386
364.288	0.48169014
364.504	0.48845917
364.719	0.48857906
364.935	0.49051529
365.15	0.49266872
365.366	0.49390373
365.581	0.50101716
365.797	0.50779233
366.012	0.50114912
366.228	0.49606894
366.443	0.50220609
366.658	0.50343474
366.874	0.49946941
367.089	0.50328072
367.305	0.50348582
367.52	0.50816538
367.735	0.50922544
367.951	0.50711471
368.166	0.51077638
368.381	0.52171344
368.597	0.51890655
368.812	0.52416485
369.027	0.5282389
369.243	0.53294862
369.458	0.54494877
369.673	0.54633077
369.888	0.54458416
370.104	0.54211562
370.319	0.54424949
370.534	0.5430953
370.749	0.54538775
370.964	0.54228682
371.179	0.54215876
371.395	0.54097735
371.61	0.54685341
371.825	0.54123319
372.04	0.54233887
372.255	0.53962347
372.47	0.53799739
372.685	0.5352747
372.9	0.53474569
373.115	0.53318678
373.33	0.53865186
373.545	0.53967396
373.76	0.54421992
373.975	0.54353091
374.19	0.54481063
374.405	0.54776668
374.62	0.55483613
374.835	0.56007044
375.05	0.56148933
375.265	0.56216858
375.48	0.56483113
375.695	0.57509178
375.91	0.57311639
376.125	0.56440066
376.339	0.55615933
376.554	0.55842499
376.769	0.56007534
376.984	0.56003051
377.199	0.55954812
377.414	0.56106196
377.628	0.56833584
377.843	0.57606211
378.058	0.57725627
378.273	0.58086389
378.487	0.58317459
378.702	0.5839692
378.917	0.58621491
379.131	0.58458356
379.346	0.5776921
379.561	0.57499559
379.775	0.57195118
379.99	0.56918766
380.205	0.56500588
380.419	0.56152793
380.634	0.55827006
380.848	0.56506106
381.063	0.56606649
381.278	0.57165858
381.492	0.56933856
381.707	0.57449478
381.921	0.5764364
382.136	0.5834093
382.35	0.58020247
382.565	0.57870895
382.779	0.57834066
382.994	0.58254072
383.208	0.579659
383.422	0.58469559
383.637	0.58192299
383.851	0.58613937
384.066	0.59158575
384.28	0.5935807
384.494	0.59461675
384.709	0.59821683
384.923	0.59848511
385.137	0.596794
385.352	0.59754872
385.566	0.5989383
385.78	0.59696717
385.995	0.59645982
386.209	0.59366368
386.423	0.59541193
386.637	0.59978072
386.852	0.59534839
387.066	0.59398045
387.28	0.59121503
387.494	0.59477946
387.708	0.59719067
387.923	0.59532775
388.137	0.59693589
388.351	0.60049478
388.565	0.60267347
388.779	0.6064914
388.993	0.61162013
389.207	0.61217841
389.421	0.61431537
389.635	0.61233887
389.85	0.61255909
390.064	0.61256269
390.278	0.61366135
390.492	0.61307885
390.706	0.61416259
390.92	0.61521118
391.134	0.61933175
391.348	0.62550111
391.561	0.6246732
391.775	0.62309955
391.989	0.61901277
392.203	0.62021305
392.417	0.62072683
392.631	0.62229217
392.845	0.61766244
393.059	0.62045904
393.273	0.62053053
393.486	0.61786086
393.7	0.61449454
393.914	0.61573566
394.128	0.61363099
394.342	0.61271108
394.555	0.60860647
394.769	0.60934483
394.983	0.61283095
395.197	0.61531346
395.41	0.61572255
395.624	0.6176084
395.838	0.61819762
396.051	0.62516793
396.265	0.62306965
396.479	0.62443728
396.692	0.62670078
396.906	0.62505423
397.12	0.62334758
397.333	0.62596681
397.547	0.62282061
397.76	0.62724211
397.974	0.62708085
398.187	0.62688666
398.401	0.62924985
398.614	0.63011535
398.828	0.63043677
399.041	0.63133701
399.255	0.63006318
399.468	0.62972824
399.682	0.62929176
399.895	0.62950319
400.109	0.62855306
400.322	0.6269567
400.536	0.62345654
400.749	0.62583957
400.962	0.62646399
401.176	0.62462866
401.389	0.62345742
401.602	0.62086296
401.816	0.62179371
402.029	0.62443375
402.242	0.62241816
402.456	0.62236982
402.669	0.62165168
402.882	0.61802635
403.095	0.62176547
403.309	0.62151345
403.522	0.62233526
403.735	0.62059324
403.948	0.61952732
404.161	0.624469
404.375	0.62627967
404.588	0.62534388
404.801	0.62508042
405.014	0.622959
405.227	0.62627786
405.44	0.62751419
405.653	0.62650879
405.866	0.62535132
406.079	0.62446967
406.293	0.62331164
406.506	0.62318008
406.719	0.62112465
406.932	0.61970995
407.145	0.61636184
407.358	0.61973696
407.571	0.6179725
407.784	0.61867802
407.996	0.61865618
408.209	0.61662253
408.422	0.61535997
408.635	0.61623515
408.848	0.61488998
409.061	0.61320598
409.274	0.61223116
409.487	0.61152078
409.7	0.61187372
409.912	0.61280167
410.125	0.61192561
410.338	0.61097256
410.551	0.61120955
410.764	0.61105932
410.976	0.61050243
411.189	0.6099166
411.402	0.60716073
411.615	0.607215
411.827	0.60616425
412.04	0.60625786
412.253	0.60456223
412.465	0.6032168
412.678	0.60213326
412.891	0.60295391
413.103	0.59923256
413.316	0.59783583
413.529	0.59835643
413.741	0.59902233
413.954	0.59969838
414.166	0.59924569
414.379	0.59791386
414.591	0.59983426
414.804	0.59869487
415.016	0.59727213
415.229	0.59563412
415.441	0.59323736
415.654	0.59337326
415.866	0.5926212
416.079	0.59239718
416.291	0.59125754
416.504	0.59165834
416.716	0.59105703
416.928	0.59078403
417.141	0.58862229
417.353	0.58862958
417.566	0.5851505
417.778	0.58464006
417.99	0.58095125
418.203	0.57866563
418.415	0.57753606
418.627	0.57705391
418.839	0.5754397
419.052	0.57686334
419.264	0.57602915
419.476	0.57644368
419.688	0.57661751
419.901	0.57538093
420.113	0.57414591
420.325	0.57294914
420.537	0.57039379
420.749	0.56994968
420.961	0.5690519
421.174	0.56740435
421.386	0.56615315
421.598	0.56503569
421.81	0.56364094
422.022	0.56219513
422.234	0.56091107
422.446	0.55904007
422.658	0.55782802
422.87	0.55703055
423.082	0.55577731
423.294	0.55450792
423.506	0.55385369
423.718	0.5519812
423.93	0.55027867
424.142	0.54839857
424.354	0.54669172
424.566	0.54487693
424.778	0.54401746
424.99	0.54246234
425.202	0.54048378
425.414	0.53968226
425.625	0.53964478
425.837	0.53761994
426.049	0.53737328
426.261	0.53550299
426.473	0.53351395
426.684	0.53281434
426.896	0.53215706
427.108	0.52959054
427.32	0.5289471
427.531	0.52677754
427.743	0.52551224
427.955	0.52545811
428.167	0.52366592
428.378	0.52153326
428.59	0.52019644
428.802	0.51862958
429.013	0.51720999
429.225	0.51567712
429.436	0.51348561
429.648	0.51254227
429.86	0.51182191
430.071	0.51104274
430.283	0.50994818
430.494	0.50802143
430.706	0.50640702
430.917	0.50484819
431.129	0.50315232
431.34	0.50122012
431.552	0.49990867
431.763	0.49811237
431.975	0.49746031
432.186	0.49564363
432.398	0.49404035
432.609	0.49180667
432.821	0.49030913
433.032	0.48813381
433.243	0.48609983
433.455	0.48441573
433.666	0.48322168
433.877	0.48235388
434.089	0.4806351
434.3	0.47880886
434.511	0.4768526
434.723	0.47538634
434.934	0.47307892
435.145	0.47070865
435.356	0.46832208
435.568	0.46695125
435.779	0.46491784
435.99	0.46270826
436.201	0.46092625
436.412	0.45926781
436.624	0.45830845
436.835	0.45724783
437.046	0.45626958
437.257	0.45468195
437.468	0.45433286
437.679	0.45347031
437.89	0.45181569
438.101	0.45061277
438.312	0.44887702
438.523	0.44696919
438.734	0.44558085
438.945	0.44400021
439.156	0.44159697
439.367	0.44071595
439.578	0.4391814
439.789	0.43708889
440	0.43585423
440.211	0.43398691
440.422	0.43219511
440.633	0.43137982
440.844	0.42912665
441.055	0.42727434
441.266	0.42619346
441.477	0.42401368
441.687	0.42253305
441.898	0.42082151
442.109	0.41873021
442.32	0.41710391
442.531	0.41479448
442.741	0.41229286
442.952	0.41079695
443.163	0.40946747
443.374	0.40761603
443.584	0.40577829
443.795	0.40433212
444.006	0.40309347
444.216	0.4016139
444.427	0.39951733
444.638	0.39748736
444.848	0.39582869
445.059	0.39414148
445.27	0.39221836
445.48	0.3905453
445.691	0.38890805
445.901	0.38775338
446.112	0.38619209
446.323	0.38425348
446.533	0.38269074
446.744	0.38086702
446.954	0.37893728
447.165	0.37734143
447.375	0.37588509
447.586	0.37456111
447.796	0.37341341
448.006	0.37170114
448.217	0.37065076
448.427	0.36914764
448.638	0.36733473
448.848	0.3653036
449.058	0.3633788
449.269	0.36161816
449.479	0.3602327
449.689	0.35837217
449.9	0.3569084
450.11	0.35544509
450.32	0.35423797
450.531	0.35264932
450.741	0.35105495
450.951	0.34953965
451.161	0.34783083
451.372	0.34632785
451.582	0.34545998
451.792	0.34377579
452.002	0.34238083
452.212	0.34073631
452.422	0.33925322
452.633	0.33793438
452.843	0.33680587
453.053	0.33472593
453.263	0.33337235
453.473	0.33190829
453.683	0.33084452
453.893	0.32917215
454.103	0.32795826
454.313	0.32649382
454.523	0.32514272
454.733	0.32380662
454.943	0.32268189
455.153	0.32157394
455.363	0.32028915
455.573	0.31907379
455.783	0.31793189
455.993	0.31670948
456.203	0.31561526
456.413	0.31421036
456.623	0.3123597
456.833	0.31157496
457.042	0.31021006
457.252	0.30887288
457.462	0.30745138
457.672	0.3061877
457.882	0.30490694
458.091	0.30399134
458.301	0.30230087
458.511	0.30101562
458.721	0.29990539
458.931	0.2988344
459.14	0.2977538
459.35	0.29691492
459.56	0.29576523
459.769	0.29490652
459.979	0.29376402
460.189	0.29252187
460.398	0.29141363
460.608	0.29033748
460.817	0.28919963
461.027	0.28811011
461.237	0.28705244
461.446	0.2860068
461.656	0.28511565
461.865	0.28416459
462.075	0.28308485
462.284	0.28216202
462.494	0.28110021
462.703	0.27990186
462.913	0.27897986
463.122	0.27790989
463.332	0.27694687
463.541	0.27610418
463.751	0.27506135
463.96	0.27438293
464.169	0.2737364
464.379	0.27308285
464.588	0.2724121
464.797	0.271744
465.007	0.2710104
465.216	0.27031985
465.425	0.26955423
465.635	0.26889402
465.844	0.26815644
466.053	0.26735356
466.263	0.26670459
466.472	0.26588147
466.681	0.26531516
466.89	0.26465525
467.099	0.26403065
467.309	0.26345494
467.518	0.26294079
467.727	0.2624518
467.936	0.26198031
468.145	0.26146527
468.354	0.26112497
468.563	0.26046971
468.772	0.25984854
468.982	0.25925074
469.191	0.25871843
469.4	0.25817046
469.609	0.25766662
469.818	0.25724771
470.027	0.25697339
470.236	0.25659058
470.445	0.25626258
470.654	0.2558608
470.863	0.25536852
471.072	0.25509502
471.28	0.25455131
471.489	0.25418531
471.698	0.25383425
471.907	0.25345571
472.116	0.25312261
472.325	0.25294194
472.534	0.25252763
472.743	0.25225471
472.951	0.25222857
473.16	0.25212139
473.369	0.25195854
473.578	0.2518074
473.786	0.25171034
473.995	0.25151872
474.204	0.25139991
474.413	0.25100412
474.621	0.25089599
474.83	0.25090206
475.039	0.25066944
475.247	0.25057446
475.456	0.2506324
475.665	0.25056976
475.873	0.25056985
476.082	0.25040589
476.291	0.25031172
476.499	0.25031683
476.708	0.25019243
476.916	0.25008466
477.125	0.25005644
477.333	0.2500087
477.542	0.25001755
477.75	0.24999927
477.959	0.25014225
478.167	0.25027906
478.376	0.25031393
478.584	0.25044645
478.793	0.2505564
479.001	0.25075999
479.209	0.25087968
479.418	0.25102157
479.626	0.25123341
479.834	0.25139868
480.043	0.25164788
480.251	0.25172931
480.459	0.25187573
480.668	0.25211971
480.876	0.25235306
481.084	0.25258726
481.293	0.25296073
481.501	0.2531906
481.709	0.25372349
481.917	0.25412156
482.125	0.25436512
482.334	0.25467477
482.542	0.25490698
482.75	0.25516343
482.958	0.25557004
483.166	0.25591549
483.374	0.25628061
483.583	0.25674136
483.791	0.25712516
483.999	0.25756402
484.207	0.25799953
484.415	0.2584154
484.623	0.25878371
484.831	0.25921043
485.039	0.25969363
485.247	0.26019645
485.455	0.26082185
485.663	0.26146737
485.871	0.261924
486.079	0.26241924
486.287	0.26292905
486.495	0.26339902
486.702	0.26396628
486.91	0.26446037
487.118	0.26489372
487.326	0.26546843
487.534	0.26609995
487.742	0.26670978
487.95	0.26745961
488.157	0.26813148
488.365	0.26882008
488.573	0.26961517
488.781	0.27037377
488.988	0.2712461
489.196	0.27209937
489.404	0.27281617
489.612	0.27362361
489.819	0.27439371
490.027	0.27511509
490.235	0.27594072
490.442	0.27669602
490.65	0.27743287
490.857	0.27830107
491.065	0.27897571
491.273	0.27974184
491.48	0.28055897
491.688	0.2812809
491.895	0.28207712
492.103	0.28290353
492.31	0.28371863
492.518	0.28465864
492.725	0.28563136
492.933	0.28653022
493.14	0.28749505
493.348	0.28833229
493.555	0.28919321
493.763	0.29006327
493.97	0.29109579
494.177	0.29191644
494.385	0.29287063
494.592	0.29391601
494.8	0.29496707
495.007	0.29607001
495.214	0.29715297
495.422	0.2981181
495.629	0.29928691
495.836	0.30030086
496.043	0.30126677
496.251	0.3023318
496.458	0.30329216
496.665	0.30431734
496.872	0.30542185
497.08	0.30651804
497.287	0.30770832
497.494	0.30891517
497.701	0.3099638
497.908	0.31120996
498.115	0.31229344
498.322	0.31331871
498.53	0.31436333
498.737	0.31546847
498.944	0.31655895
499.151	0.3178193
499.358	0.31893116
499.565	0.32001015
499.772	0.32129153
499.979	0.32249327
500.186	0.3237014
500.393	0.32489128
500.6	0.32608213
500.807	0.32732761
501.014	0.32865032
501.221	0.32980073
501.427	0.33104946
501.634	0.33232586
501.841	0.33359821
502.048	0.33483533
502.255	0.3360293
502.462	0.33732769
502.669	0.33874014
502.875	0.34009783
503.082	0.3413817
503.289	0.34267425
503.496	0.34403455
503.702	0.34531254
503.909	0.34664147
504.116	0.34796549
504.323	0.34931449
504.529	0.35071507
504.736	0.35212167
504.943	0.35348262
505.149	0.35494502
505.356	0.35633793
505.563	0.3577709
505.769	0.35914155
505.976	0.3604852
506.182	0.36190235
506.389	0.36334773
506.595	0.36484933
506.802	0.36634186
507.008	0.36768433
507.215	0.36917346
507.421	0.37064138
507.628	0.37212467
507.834	0.37351913
508.041	0.37484805
508.247	0.37621664
508.454	0.3777745
508.66	0.37918802
508.866	0.38068889
509.073	0.38219206
509.279	0.38374875
509.486	0.38531449
509.692	0.38680347
509.898	0.38835649
510.105	0.3899139
510.311	0.39134972
510.517	0.39287272
510.723	0.39436818
510.93	0.39583918
511.136	0.39749887
511.342	0.39901334
511.548	0.40048868
511.754	0.40218117
511.961	0.40361217
512.167	0.40510471
512.373	0.40669849
512.579	0.40816797
512.785	0.40967006
512.991	0.41119299
513.197	0.41264897
513.404	0.41427792
513.61	0.41597902
513.816	0.41754281
514.022	0.41919237
514.228	0.42074606
514.434	0.42227564
514.64	0.42384084
514.846	0.42543572
515.052	0.42696604
515.258	0.42851737
515.464	0.43000949
515.669	0.43165897
515.875	0.43331077
516.081	0.4349215
516.287	0.43657504
516.493	0.43817257
516.699	0.43977053
516.905	0.44142522
517.111	0.44298266
517.316	0.44468579
517.522	0.44633525
517.728	0.44795505
517.934	0.44952657
518.139	0.45118962
518.345	0.4527781
518.551	0.45443098
518.757	0.45603506
518.962	0.45761476
519.168	0.45920729
519.374	0.46087211
519.579	0.46240353
519.785	0.46405506
519.991	0.46567682
520.196	0.46718151
520.402	0.46880139
520.607	0.47045012
520.813	0.4721893
521.018	0.47389711
521.224	0.47545051
521.429	0.47711971
521.635	0.47889422
521.84	0.48047592
522.046	0.48212033
522.251	0.48364868
522.457	0.48524715
522.662	0.4869507
522.868	0.4885833
523.073	0.49005515
523.279	0.49170594
523.484	0.49324827
523.689	0.49475572
523.895	0.49640988
524.1	0.49797152
524.305	0.49954738
524.511	0.50118636
524.716	0.50276099
524.921	0.50436534
525.126	0.50606677
525.332	0.50757224
525.537	0.5090778
525.742	0.51072118
525.947	0.51239113
526.153	0.51399257
526.358	0.51567261
526.563	0.51724906
526.768	0.51885288
526.973	0.52057831
527.178	0.52215845
527.383	0.52376309
527.588	0.52534585
527.794	0.52682555
527.999	0.52840162
528.204	0.52996232
528.409	0.53139877
528.614	0.5329958
528.819	0.5345177
529.024	0.5360069
529.229	0.53752365
529.434	0.53917635
529.639	0.54071636
529.843	0.5423441
530.048	0.54378314
530.253	0.54518513
530.458	0.54676491
530.663	0.54832643
530.868	0.54981791
531.073	0.55128913
531.278	0.55275137
531.482	0.55427294
531.687	0.55597541
531.892	0.55743467
532.097	0.55882385
532.302	0.56037763
532.506	0.56194624
532.711	0.56343266
532.916	0.5649289
533.12	0.5663736
533.325	0.56792002
533.53	0.56960482
533.734	0.57099693
533.939	0.57252361
534.144	0.57414536
534.348	0.5756978
534.553	0.57720456
534.757	0.57871055
534.962	0.5801072
535.167	0.58157634
535.371	0.58299961
535.576	0.58450336
535.78	0.58592975
535.985	0.58730203
536.189	0.58861436
536.394	0.59003789
536.598	0.59136201
536.803	0.59276296
537.007	0.59416703
537.211	0.59560358
537.416	0.59695676
537.62	0.59840004
537.825	0.59974809
538.029	0.60141922
538.233	0.6028139
538.438	0.60415649
538.642	0.60531451
538.846	0.60683805
539.05	0.60812073
539.255	0.6094446
539.459	0.61063502
539.663	0.61197688
539.867	0.61332533
540.072	0.61480551
540.276	0.61602997
540.48	0.61755782
540.684	0.61894123
540.888	0.62045442
541.092	0.62170746
541.297	0.62292679
541.501	0.62422921
541.705	0.62564952
541.909	0.6267263
542.113	0.6278653
542.317	0.62904718
542.521	0.6302964
542.725	0.6315866
542.929	0.63283474
543.133	0.63400318
543.337	0.63544099
543.541	0.63683389
543.745	0.63796522
543.949	0.63931566
544.153	0.64050489
544.357	0.6416964
544.56	0.64298359
544.764	0.64412761
544.968	0.64521103
545.172	0.6463256
545.376	0.64754912
545.58	0.64872596
545.783	0.64999315
545.987	0.65090652
546.191	0.65206015
546.395	0.65340913
546.598	0.65472256
546.802	0.65579343
547.006	0.65699819
547.21	0.65782322
547.413	0.6591631
547.617	0.66033735
547.821	0.66140076
548.024	0.66249731
548.228	0.6634876
548.431	0.66452348
548.635	0.66582562
548.839	0.66685906
549.042	0.6679037
549.246	0.66880387
549.449	0.66983919
549.653	0.67099601
549.856	0.67199072
550.06	0.67290734
550.263	0.673966
550.467	0.67499582
550.67	0.67609189
550.874	0.67702502
551.077	0.67810144
551.28	0.6792424
551.484	0.68037879
551.687	0.68136493
551.891	0.68239048
552.094	0.68341565
552.297	0.68450519
552.501	0.68550989
552.704	0.68642998
552.907	0.68736756
553.11	0.68823343
553.314	0.68910428
553.517	0.68987936
553.72	0.69076246
553.923	0.69167159
554.127	0.69271642
554.33	0.6935309
554.533	0.69449463
554.736	0.69529305
554.939	0.69632378
555.142	0.69732013
555.345	0.69818823
555.549	0.69900989
555.752	0.69984979
555.955	0.7006448
556.158	0.7018169
556.361	0.70266766
556.564	0.70347289
556.767	0.70433211
556.97	0.7052475
557.173	0.70614044
557.376	0.70713454
557.579	0.70778035
557.782	0.70861323
557.984	0.70942264
558.187	0.71017451
558.39	0.71086649
558.593	0.71176272
558.796	0.7124459
558.999	0.71323259
559.202	0.71401701
559.404	0.71468676
559.607	0.71549879
559.81	0.71612847
560.013	0.7168501
560.216	0.71763204
560.418	0.71837611
560.621	0.7190818
560.824	0.71988089
561.026	0.72054233
561.229	0.72132949
561.432	0.72203455
561.634	0.72270896
561.837	0.7232268
562.04	0.72385543
562.242	0.72446745
562.445	0.72522636
562.647	0.72594156
562.85	0.72643495
563.053	0.72692644
563.255	0.72764213
563.458	0.72819025
563.66	0.7287444
563.863	0.72936747
564.065	0.73000632
564.268	0.73071321
