Data from 1_mm_pl_80pc_Absorbance__0__16-39-39-844.txt Node

Date: Wed Mar 08 16:39:39 CET 2023
User: Ange
Spectrometer: FLMT08341
Trigger mode: 0
Integration Time (sec): 1.000000E-2
Scans to average: 400
Electric dark correction enabled: true
Nonlinearity correction enabled: false
Boxcar width: 3
XAxis mode: Wavelengths
Number of Pixels in Spectrum: 3648
>>>>>Begin Spectral Data<<<<<
345.271	0.02943846
345.487	0.03872716
345.704	0.03860966
345.921	0.05205738
346.137	0.06233668
346.354	0.05892218
346.571	0.12396576
346.787	0.22643696
347.004	-0.13511639
347.22	-0.02288536
347.437	0.09165834
347.653	0.12532185
347.87	-0.0357166
348.086	-0.14034168
348.303	0.49095196
348.519	0.2839705
348.736	0.30511917
348.952	0.30988313
349.169	0.32072634
349.385	0.33749409
349.601	0.3351094
349.818	0.32969506
350.034	0.32576071
350.251	0.32333968
350.467	0.32604321
350.683	0.31659279
350.9	0.31635893
351.116	0.31490013
351.332	0.31340068
351.549	0.32328149
351.765	0.32982995
351.981	0.33414638
352.197	0.3459686
352.414	0.35287357
352.63	0.35392044
352.846	0.36435524
353.062	0.35685509
353.278	0.35202146
353.495	0.36107907
353.711	0.3617437
353.927	0.36598769
354.143	0.37112555
354.359	0.36616603
354.575	0.36520779
354.792	0.37585441
355.008	0.36635764
355.224	0.36134382
355.44	0.3565807
355.656	0.35281291
355.872	0.35678559
356.088	0.37370966
356.304	0.37281489
356.52	0.37508389
356.736	0.3811824
356.952	0.3843425
357.168	0.38773897
357.384	0.38975499
357.6	0.37833751
357.816	0.38449407
358.032	0.39032686
358.248	0.39672508
358.464	0.39741576
358.679	0.39797237
358.895	0.39852839
359.111	0.40387214
359.327	0.39707618
359.543	0.39809747
359.759	0.40170147
359.974	0.40245139
360.19	0.40413078
360.406	0.40431986
360.622	0.4042222
360.838	0.40389167
361.053	0.40508273
361.269	0.40558315
361.485	0.40705222
361.701	0.41076212
361.916	0.40824061
362.132	0.40758457
362.348	0.41120518
362.563	0.41456249
362.779	0.41139612
362.995	0.41400196
363.21	0.41709536
363.426	0.42012313
363.641	0.421415
363.857	0.42400076
364.073	0.42066085
364.288	0.41996343
364.504	0.42638911
364.719	0.42595505
364.935	0.42540113
365.15	0.42634276
365.366	0.42899161
365.581	0.43437216
365.797	0.43596833
366.012	0.43033738
366.228	0.42717106
366.443	0.43374863
366.658	0.43576352
366.874	0.43261528
367.089	0.43445552
367.305	0.4374663
367.52	0.43998982
367.735	0.44272972
367.951	0.44032721
368.166	0.44277842
368.381	0.44906674
368.597	0.44697142
368.812	0.45097365
369.027	0.45440829
369.243	0.45677898
369.458	0.46481467
369.673	0.46511108
369.888	0.46571496
370.104	0.46603679
370.319	0.46724372
370.534	0.4648939
370.749	0.46540875
370.964	0.46500755
371.179	0.46499178
371.395	0.46269723
371.61	0.46459668
371.825	0.45827759
372.04	0.46041979
372.255	0.46013797
372.47	0.45738217
372.685	0.45562707
372.9	0.45498814
373.115	0.45357732
373.33	0.45912886
373.545	0.45853605
373.76	0.45914176
373.975	0.45794002
374.19	0.4578927
374.405	0.46047641
374.62	0.46605104
374.835	0.46903739
375.05	0.47185417
375.265	0.47383957
375.48	0.4762166
375.695	0.48496836
375.91	0.48300507
376.125	0.47890424
376.339	0.47392437
376.554	0.47418774
376.769	0.47466189
376.984	0.47476848
377.199	0.47428325
377.414	0.47421166
377.628	0.48056339
377.843	0.48446425
378.058	0.48549041
378.273	0.48823849
378.487	0.4903826
378.702	0.49063682
378.917	0.49224038
379.131	0.48804393
379.346	0.48367255
379.561	0.48151793
379.775	0.47809821
379.99	0.47437531
380.205	0.46970654
380.419	0.46786544
380.634	0.4635672
380.848	0.46771534
381.063	0.4698401
381.278	0.47458261
381.492	0.47295366
381.707	0.47835588
381.921	0.47938977
382.136	0.48560491
382.35	0.48328041
382.565	0.48036562
382.779	0.47906307
382.994	0.48046672
383.208	0.47719245
383.422	0.48063379
383.637	0.47976376
383.851	0.48316471
384.066	0.48592243
384.28	0.48742012
384.494	0.48925477
384.709	0.49152235
384.923	0.49042774
385.137	0.48758375
385.352	0.48587698
385.566	0.48688309
385.78	0.48551352
385.995	0.48426517
386.209	0.48161965
386.423	0.48263595
386.637	0.48475951
386.852	0.48266563
387.066	0.48142109
387.28	0.47969345
387.494	0.48193638
387.708	0.48381523
387.923	0.48216981
388.137	0.48319924
388.351	0.48537999
388.565	0.48629268
388.779	0.48765664
388.993	0.49009807
389.207	0.49050234
389.421	0.49274143
389.635	0.49164531
389.85	0.49116185
390.064	0.49158832
390.278	0.49144608
390.492	0.49207044
390.706	0.49083086
390.92	0.49041073
391.134	0.49220777
391.348	0.49559479
391.561	0.49386028
391.775	0.49275827
391.989	0.48958332
392.203	0.49123647
392.417	0.4911414
392.631	0.49212199
392.845	0.48883605
393.059	0.49134981
393.273	0.49167143
393.486	0.48996379
393.7	0.48697706
393.914	0.48774808
394.128	0.48626589
394.342	0.48614932
394.555	0.48193199
394.769	0.48133539
394.983	0.48279355
395.197	0.48477426
395.41	0.48367615
395.624	0.48391579
395.838	0.48370977
396.051	0.4877114
396.265	0.48676227
396.479	0.48724774
396.692	0.48699451
396.906	0.485516
397.12	0.48429524
397.333	0.48500213
397.547	0.48322723
397.76	0.4845188
397.974	0.48384504
398.187	0.48377581
398.401	0.48574614
398.614	0.48634528
398.828	0.48581955
399.041	0.4858232
399.255	0.48534427
399.468	0.48449399
399.682	0.48412167
399.895	0.48395902
400.109	0.48229414
400.322	0.48147338
400.536	0.47882588
400.749	0.47958896
400.962	0.4800024
401.176	0.47865196
401.389	0.47663668
401.602	0.47481431
401.816	0.47530062
402.029	0.47683515
402.242	0.4755597
402.456	0.47489105
402.669	0.47399271
402.882	0.47238102
403.095	0.47431853
403.309	0.47338345
403.522	0.47272423
403.735	0.47113528
403.948	0.47049206
404.161	0.47327249
404.375	0.47377808
404.588	0.47300568
404.801	0.47274242
405.014	0.47149958
405.227	0.47292158
405.44	0.47323905
405.653	0.47142803
405.866	0.46984033
406.079	0.4690443
406.293	0.46861409
406.506	0.46844893
406.719	0.4668719
406.932	0.46540624
407.145	0.46395076
407.358	0.46564734
407.571	0.46385925
407.784	0.46305236
407.996	0.4631138
408.209	0.46201671
408.422	0.46093794
408.635	0.46066944
408.848	0.45986074
409.061	0.45836351
409.274	0.45725472
409.487	0.45568907
409.7	0.4551245
409.912	0.45521919
410.125	0.45479755
410.338	0.45367783
410.551	0.4536079
410.764	0.45312771
410.976	0.45280606
411.189	0.45259448
411.402	0.45141908
411.615	0.45124018
411.827	0.45038662
412.04	0.45050743
412.253	0.44979304
412.465	0.44892253
412.678	0.44747323
412.891	0.44713161
413.103	0.44412563
413.316	0.44287858
413.529	0.44268718
413.741	0.44292162
413.954	0.44227371
414.166	0.44232328
414.379	0.4410715
414.591	0.44190659
414.804	0.44118721
415.016	0.44026251
415.229	0.43849227
415.441	0.43710717
415.654	0.43669956
415.866	0.43635436
416.079	0.43561131
416.291	0.4346638
416.504	0.43472174
416.716	0.43411908
416.928	0.43378235
417.141	0.43222531
417.353	0.43184626
417.566	0.42972271
417.778	0.42928117
417.99	0.42636502
418.203	0.42473315
418.415	0.42401189
418.627	0.42367271
418.839	0.42251151
419.052	0.42334653
419.264	0.42267908
419.476	0.42295915
419.688	0.4229608
419.901	0.42208628
420.113	0.42087448
420.325	0.41967774
420.537	0.41804221
420.749	0.41760619
420.961	0.41683742
421.174	0.41578263
421.386	0.41445604
421.598	0.41305094
421.81	0.41208396
422.022	0.41106949
422.234	0.40978018
422.446	0.40850976
422.658	0.40767703
422.87	0.40714598
423.082	0.40674051
423.294	0.40608404
423.506	0.40555745
423.718	0.40458272
423.93	0.40348163
424.142	0.40228336
424.354	0.40097253
424.566	0.39984456
424.778	0.39891933
424.99	0.39790315
425.202	0.39645369
425.414	0.39566185
425.625	0.39503926
425.837	0.3936359
426.049	0.39332461
426.261	0.39216558
426.473	0.39050675
426.684	0.38986253
426.896	0.38925048
427.108	0.38770965
427.32	0.3873084
427.531	0.3857351
427.743	0.38464803
427.955	0.38464541
428.167	0.3833232
428.378	0.38198932
428.59	0.38122765
428.802	0.38033006
429.013	0.37926536
429.225	0.37839946
429.436	0.37697775
429.648	0.37641927
429.86	0.37595256
430.071	0.37507627
430.283	0.37439974
430.494	0.37340166
430.706	0.37216605
430.917	0.37105257
431.129	0.37014862
431.34	0.36868145
431.552	0.36789339
431.763	0.36655296
431.975	0.36581367
432.186	0.36486777
432.398	0.36375417
432.609	0.36181708
432.821	0.36098504
433.032	0.35961688
433.243	0.35846378
433.455	0.35736003
433.666	0.35640516
433.877	0.35589473
434.089	0.35497987
434.3	0.35379058
434.511	0.35243358
434.723	0.35119507
434.934	0.34962417
435.145	0.34829281
435.356	0.34673466
435.568	0.34566557
435.779	0.34442071
435.99	0.34311457
436.201	0.34216546
436.412	0.34114513
436.624	0.34038903
436.835	0.33961116
437.046	0.33904792
437.257	0.33792994
437.468	0.33778932
437.679	0.33709354
437.89	0.33634943
438.101	0.33568597
438.312	0.33477519
438.523	0.33355887
438.734	0.33264629
438.945	0.33130063
439.156	0.32963756
439.367	0.32861595
439.578	0.32755579
439.789	0.3259785
440	0.3251103
440.211	0.32399702
440.422	0.32300888
440.633	0.3226197
440.844	0.32144278
441.055	0.32017549
441.266	0.31971019
441.477	0.3185207
441.687	0.3175042
441.898	0.31652667
442.109	0.31508593
442.32	0.314118
442.531	0.31270331
442.741	0.31107716
442.952	0.30990011
443.163	0.30902161
443.374	0.30778445
443.584	0.30678942
443.795	0.30568497
444.006	0.30494856
444.216	0.30398314
444.427	0.30271769
444.638	0.30144905
444.848	0.30050487
445.059	0.29945557
445.27	0.29832073
445.48	0.29712989
445.691	0.29611208
445.901	0.295428
446.112	0.29452433
446.323	0.29320758
446.533	0.29228068
446.744	0.29119005
446.954	0.29007035
447.165	0.28899054
447.375	0.28801087
447.586	0.28724746
447.796	0.28661213
448.006	0.28547271
448.217	0.28485749
448.427	0.28394584
448.638	0.28294909
448.848	0.28175603
449.058	0.2806049
449.269	0.27951405
449.479	0.27873938
449.689	0.27768108
449.9	0.2768856
450.11	0.27599034
450.32	0.27535442
450.531	0.27438273
450.741	0.27332022
450.951	0.27233073
451.161	0.27114945
451.372	0.27019281
451.582	0.26970924
451.792	0.26868087
452.002	0.26775147
452.212	0.26686279
452.422	0.26604069
452.633	0.26541948
452.843	0.26467579
453.053	0.26331524
453.263	0.26235092
453.473	0.261463
453.683	0.26084201
453.893	0.25965782
454.103	0.25887701
454.313	0.25800153
454.523	0.25733812
454.733	0.25663535
454.943	0.25593154
455.153	0.25507939
455.363	0.2544162
455.573	0.25340705
455.783	0.25253355
455.993	0.25151663
456.203	0.25090383
456.413	0.24997683
456.623	0.24900548
456.833	0.24859307
457.042	0.24796681
457.252	0.24721881
457.462	0.24647296
457.672	0.24575924
457.882	0.24516715
458.091	0.24459548
458.301	0.24350029
458.511	0.24284882
458.721	0.24238502
458.931	0.2417953
459.14	0.24106929
459.35	0.24058996
459.56	0.24009866
459.769	0.23981792
459.979	0.23919755
460.189	0.23843156
460.398	0.23799178
460.608	0.23759259
460.817	0.23692016
461.027	0.23624709
461.237	0.23555735
461.446	0.23505912
461.656	0.23456728
461.865	0.23392905
462.075	0.2331923
462.284	0.23285413
462.494	0.2323217
462.703	0.23171078
462.913	0.23121847
463.122	0.23073385
463.332	0.2302695
463.541	0.22998934
463.751	0.22947083
463.96	0.22913615
464.169	0.22890873
464.379	0.22863053
464.588	0.22835233
464.797	0.22811065
465.007	0.22786266
465.216	0.22759778
465.425	0.22720348
465.635	0.22687415
465.844	0.2264615
466.053	0.22625806
466.263	0.22610143
466.472	0.22555813
466.681	0.2253014
466.89	0.22508069
467.099	0.22489242
467.309	0.22474097
467.518	0.22455703
467.727	0.22424686
467.936	0.22426829
468.145	0.22403757
468.354	0.22398852
468.563	0.22373082
468.772	0.22339584
468.982	0.22296869
469.191	0.22293618
469.4	0.22270942
469.609	0.2226776
469.818	0.22264783
470.027	0.2225783
470.236	0.22256889
470.445	0.22262479
470.654	0.22252914
470.863	0.22237206
471.072	0.22222452
471.28	0.22204669
471.489	0.22201371
471.698	0.22195379
471.907	0.22197377
472.116	0.22192086
472.325	0.22200823
472.534	0.22208585
472.743	0.22199076
472.951	0.22225443
473.16	0.2224856
473.369	0.22255714
473.578	0.22273355
473.786	0.22287071
473.995	0.22291507
474.204	0.22314916
474.413	0.22306684
474.621	0.22315358
474.83	0.22344807
475.039	0.22349953
475.247	0.22365912
475.456	0.22390742
475.665	0.22406621
475.873	0.22430803
476.082	0.22451113
476.291	0.22464382
476.499	0.22490985
476.708	0.22510429
476.916	0.22534149
477.125	0.22570737
477.333	0.22598853
477.542	0.22624714
477.75	0.22646605
477.959	0.22682303
478.167	0.22720437
478.376	0.22744657
478.584	0.22782669
478.793	0.22814907
479.001	0.22849196
479.209	0.22885031
479.418	0.22926313
479.626	0.22970813
479.834	0.23019786
480.043	0.23057384
480.251	0.23098753
480.459	0.23149026
480.668	0.23194604
480.876	0.23235901
481.084	0.23272357
481.293	0.23327081
481.501	0.23376833
481.709	0.23437187
481.917	0.23490248
482.125	0.23541284
482.334	0.23586549
482.542	0.2364172
482.75	0.23682875
482.958	0.23744632
483.166	0.23806517
483.374	0.23861593
483.583	0.23923778
483.791	0.23990662
483.999	0.24055602
484.207	0.24129211
484.415	0.2418655
484.623	0.24242202
484.831	0.24301077
485.039	0.24359423
485.247	0.2442727
485.455	0.24492481
485.663	0.2455406
485.871	0.24621003
486.079	0.24690057
486.287	0.24763345
486.495	0.24841491
486.702	0.2491317
486.91	0.24993336
487.118	0.25066634
487.326	0.25139668
487.534	0.25211154
487.742	0.25302359
487.95	0.25386034
488.157	0.25473215
488.365	0.25553639
488.573	0.25646892
488.781	0.25745158
488.988	0.25843919
489.196	0.25929826
489.404	0.26024146
489.612	0.2611759
489.819	0.26211021
490.027	0.26304213
490.235	0.26389275
490.442	0.26488427
490.65	0.26572627
490.857	0.26661075
491.065	0.26741503
491.273	0.26833432
491.48	0.26922608
491.688	0.27010046
491.895	0.27105366
492.103	0.27215316
492.31	0.2731809
492.518	0.27433176
492.725	0.27546828
492.933	0.27652814
493.14	0.27765191
493.348	0.2786158
493.555	0.27961258
493.763	0.28063494
493.97	0.2817012
494.177	0.28269462
494.385	0.28381983
494.592	0.28491565
494.8	0.28611071
495.007	0.28722444
495.214	0.28841667
495.422	0.28954587
495.629	0.29070744
495.836	0.29179952
496.043	0.29303444
496.251	0.29418667
496.458	0.29530371
496.665	0.29645736
496.872	0.29765966
497.08	0.2988618
497.287	0.30017739
497.494	0.30139826
497.701	0.30262068
497.908	0.3039982
498.115	0.30526613
498.322	0.3064891
498.53	0.30772006
498.737	0.30892572
498.944	0.31028006
499.151	0.31154819
499.358	0.31278597
499.565	0.31393911
499.772	0.31525503
499.979	0.31655193
500.186	0.31793571
500.393	0.31916415
500.6	0.32049208
500.807	0.32180966
501.014	0.32318979
501.221	0.32455007
501.427	0.32591168
501.634	0.32720975
501.841	0.32857937
502.048	0.3299907
502.255	0.33124088
502.462	0.3326763
502.669	0.33407241
502.875	0.33554814
503.082	0.33698316
503.289	0.33835639
503.496	0.33979141
503.702	0.341263
503.909	0.34270419
504.116	0.34419829
504.323	0.34566601
504.529	0.34718001
504.736	0.34868494
504.943	0.35010221
505.149	0.35173599
505.356	0.35324373
505.563	0.3547541
505.769	0.35627764
505.976	0.35770377
506.182	0.35927656
506.389	0.36085295
506.595	0.36238395
506.802	0.36395338
507.008	0.3654803
507.215	0.3670004
507.421	0.36858137
507.628	0.37007703
507.834	0.37160236
508.041	0.37295015
508.247	0.37431708
508.454	0.37584151
508.66	0.37723819
508.866	0.37881613
509.073	0.38037364
509.279	0.38197508
509.486	0.38364003
509.692	0.3852929
509.898	0.38687236
510.105	0.38859909
510.311	0.39008262
510.517	0.39168031
510.723	0.39331897
510.93	0.39491115
511.136	0.39655937
511.342	0.39819385
511.548	0.39976888
511.754	0.40146019
511.961	0.40304711
512.167	0.40448692
512.373	0.40612635
512.579	0.40777507
512.785	0.40935538
512.991	0.41091965
513.197	0.41251346
513.404	0.41420671
513.61	0.41600755
513.816	0.41758789
514.022	0.41931647
514.228	0.42098289
514.434	0.42264479
514.64	0.42433502
514.846	0.4259878
515.052	0.42758945
515.258	0.42924949
515.464	0.43074116
515.669	0.43240451
515.875	0.43405843
516.081	0.43566195
516.287	0.43737178
516.493	0.43914321
516.699	0.44082194
516.905	0.4425401
517.111	0.44415555
517.316	0.44591218
517.522	0.44765135
517.728	0.44936566
517.934	0.45088535
518.139	0.45258559
518.345	0.45422041
518.551	0.4559817
518.757	0.45762999
518.962	0.459241
519.168	0.46075977
519.374	0.46235476
519.579	0.46396766
519.785	0.46573871
519.991	0.46740251
520.196	0.46893752
520.402	0.47057057
520.607	0.4723286
520.813	0.47415436
521.018	0.47576488
521.224	0.47727618
521.429	0.47890673
521.635	0.48061554
521.84	0.4821511
522.046	0.48375679
522.251	0.48531814
522.457	0.48701534
522.662	0.48876903
522.868	0.49049796
523.073	0.49205946
523.279	0.49377889
523.484	0.49534235
523.689	0.49696286
523.895	0.49852666
524.1	0.50004656
524.305	0.50147898
524.511	0.50315228
524.716	0.50477671
524.921	0.50641949
525.126	0.50799932
525.332	0.50967044
525.537	0.5111795
525.742	0.51285496
525.947	0.51445838
526.153	0.51595525
526.358	0.5176488
526.563	0.51930153
526.768	0.52092386
526.973	0.52261906
527.178	0.5242413
527.383	0.52582397
527.588	0.52746878
527.794	0.52887293
527.999	0.53038139
528.204	0.5317983
528.409	0.53325049
528.614	0.53473939
528.819	0.53626449
529.024	0.5377779
529.229	0.53932436
529.434	0.54092461
529.639	0.54251275
529.843	0.54413633
530.048	0.54560734
530.253	0.54707545
530.458	0.54865408
530.663	0.55014595
530.868	0.55165703
531.073	0.55307684
531.278	0.55451589
531.482	0.55598628
531.687	0.55753594
531.892	0.55885563
532.097	0.56024777
532.302	0.5617259
532.506	0.56324146
532.711	0.56461007
532.916	0.56603864
533.12	0.5674423
533.325	0.56890397
533.53	0.57048826
533.734	0.57182338
533.939	0.57325494
534.144	0.57474596
534.348	0.57618085
534.553	0.57765139
534.757	0.57910255
534.962	0.58044993
535.167	0.58193243
535.371	0.58331628
535.576	0.58486411
535.78	0.58637546
535.985	0.58777409
536.189	0.58904199
536.394	0.59038042
536.598	0.59152496
536.803	0.5928692
537.007	0.59403465
537.211	0.59533214
537.416	0.59651704
537.62	0.59792777
537.825	0.59916808
538.029	0.6008059
538.233	0.60208363
538.438	0.60347094
538.642	0.60462149
538.846	0.60597908
539.05	0.60710957
539.255	0.60837294
539.459	0.60949461
539.663	0.61066248
539.867	0.61183004
540.072	0.61318843
540.276	0.61440501
540.48	0.61581084
540.684	0.61703649
540.888	0.61835604
541.092	0.61954847
541.297	0.62079606
541.501	0.62194676
541.705	0.62315474
541.909	0.62412845
542.113	0.62517429
542.317	0.62627967
542.521	0.62745085
542.725	0.62850266
542.929	0.62956783
543.133	0.63062727
543.337	0.63197299
543.541	0.63323648
543.745	0.63425705
543.949	0.63540109
544.153	0.63654336
544.357	0.63762626
544.56	0.63879402
544.764	0.63977493
544.968	0.64072753
545.172	0.64167785
545.376	0.64277083
545.58	0.64376047
545.783	0.64496249
545.987	0.64582988
546.191	0.64688604
546.395	0.64804259
546.598	0.64934256
546.802	0.6503581
547.006	0.65142454
547.21	0.65211334
547.413	0.65326552
547.617	0.65429181
547.821	0.65524741
548.024	0.65610311
548.228	0.65684807
548.431	0.65771725
548.635	0.65871412
548.839	0.65950186
549.042	0.66035227
549.246	0.66107669
549.449	0.66191906
549.653	0.66290959
549.856	0.66373471
550.06	0.66454808
550.263	0.66548052
550.467	0.6663361
550.67	0.66733056
550.874	0.66805666
551.077	0.6689698
551.28	0.66995949
551.484	0.6710131
551.687	0.6718189
551.891	0.67268151
552.094	0.67347318
552.297	0.6743942
552.501	0.67527283
552.704	0.67607386
552.907	0.67674142
553.11	0.67738387
553.314	0.67803588
553.517	0.67853218
553.72	0.67921208
553.923	0.67988482
554.127	0.68058757
554.33	0.68113705
554.533	0.68192606
554.736	0.68251592
554.939	0.68342745
555.142	0.68428306
555.345	0.68499689
555.549	0.68565038
555.752	0.68636736
555.955	0.68702589
556.158	0.68797082
556.361	0.68869365
556.564	0.68931717
556.767	0.68998865
556.97	0.69067251
557.173	0.69141533
557.376	0.69228558
557.579	0.69272973
557.782	0.69319731
557.984	0.69378216
558.187	0.69425955
558.39	0.69471927
558.593	0.69535124
558.796	0.69573073
558.999	0.69631018
559.202	0.69697716
559.404	0.69740873
559.607	0.69811994
559.81	0.69869068
560.013	0.6992065
560.216	0.6997607
560.418	0.7003777
560.621	0.7008132
560.824	0.70140581
561.026	0.70186317
561.229	0.70230283
561.432	0.70275832
561.634	0.7032222
561.837	0.70351887
562.04	0.70401354
562.242	0.70440007
562.445	0.7047546
562.647	0.70523531
562.85	0.70551897
563.053	0.70586753
563.255	0.70633409
563.458	0.70672404
563.66	0.70709488
563.863	0.70760605
