Data from 1_mm_pl_90pc_Absorbance__0__17-53-35-304.txt Node

Date: Wed Mar 08 17:53:35 CET 2023
User: Ange
Spectrometer: FLMT08341
Trigger mode: 0
Integration Time (sec): 1.000000E-2
Scans to average: 400
Electric dark correction enabled: true
Nonlinearity correction enabled: false
Boxcar width: 3
XAxis mode: Wavelengths
Number of Pixels in Spectrum: 3648
>>>>>Begin Spectral Data<<<<<
345.271	0.05519504
345.487	0.04814208
345.704	0.03585661
345.921	0.03449678
346.137	0.04390335
346.354	0.02328565
346.571	0.04095121
346.787	-0.04577412
347.004	0.03063914
347.22	-0.10726785
347.437	0.02647534
347.653	0.23421371
347.87	-0.01794844
348.086	-0.26481206
348.303	-0.27516439
348.519	0.35215162
348.736	0.29259579
348.952	0.29828923
349.169	0.299544
349.385	0.3064118
349.601	0.30180041
349.818	0.29555163
350.034	0.28897703
350.251	0.28416492
350.467	0.28596107
350.683	0.28015587
350.9	0.27772658
351.116	0.27243089
351.332	0.26942141
351.549	0.27736362
351.765	0.28499879
351.981	0.28676041
352.197	0.29529098
352.414	0.30550056
352.63	0.31283333
352.846	0.31803737
353.062	0.31235665
353.278	0.30658115
353.495	0.31439695
353.711	0.31398955
353.927	0.31487158
354.143	0.31482849
354.359	0.31501284
354.575	0.31394158
354.792	0.32198752
355.008	0.3139419
355.224	0.31238968
355.44	0.30930529
355.656	0.30680852
355.872	0.30909401
356.088	0.32212579
356.304	0.32373234
356.52	0.32508993
356.736	0.32679318
356.952	0.32856563
357.168	0.3310917
357.384	0.33445753
357.6	0.32530579
357.816	0.32715749
358.032	0.3321106
358.248	0.33851757
358.464	0.33771564
358.679	0.34169065
358.895	0.33953645
359.111	0.34500557
359.327	0.34026772
359.543	0.34032103
359.759	0.34397314
359.974	0.34303374
360.19	0.34063736
360.406	0.34177232
360.622	0.33737605
360.838	0.33720053
361.053	0.33998777
361.269	0.33797635
361.485	0.34175207
361.701	0.34300016
361.916	0.34107812
362.132	0.34276419
362.348	0.34566166
362.563	0.34544223
362.779	0.34416711
362.995	0.34577915
363.21	0.3492078
363.426	0.35165751
363.641	0.35435369
363.857	0.35549828
364.073	0.35451357
364.288	0.35210615
364.504	0.35498925
364.719	0.35542453
364.935	0.35479674
365.15	0.35497656
365.366	0.35672861
365.581	0.3600217
365.797	0.36156865
366.012	0.357423
366.228	0.35436428
366.443	0.35833917
366.658	0.35819116
366.874	0.35465765
367.089	0.35669121
367.305	0.35790935
367.52	0.3604159
367.735	0.36075013
367.951	0.35749055
368.166	0.35954543
368.381	0.36621951
368.597	0.3628261
368.812	0.36487156
369.027	0.3667598
369.243	0.36830327
369.458	0.37562142
369.673	0.37648108
369.888	0.37529854
370.104	0.37529363
370.319	0.37683211
370.534	0.3747869
370.749	0.37573573
370.964	0.37551121
371.179	0.3749728
371.395	0.37341398
371.61	0.37643183
371.825	0.37412641
372.04	0.37601803
372.255	0.37465863
372.47	0.37130151
372.685	0.36871553
372.9	0.36846074
373.115	0.36593699
373.33	0.36696623
373.545	0.36729662
373.76	0.36913785
373.975	0.36833228
374.19	0.36787486
374.405	0.36829536
374.62	0.3718759
374.835	0.37422525
375.05	0.37405687
375.265	0.37600514
375.48	0.37830112
375.695	0.38388302
375.91	0.38201022
376.125	0.37729766
376.339	0.37277938
376.554	0.3725438
376.769	0.3717338
376.984	0.37004556
377.199	0.36976922
377.414	0.37145248
377.628	0.37485353
377.843	0.37778931
378.058	0.37819611
378.273	0.37907753
378.487	0.37917911
378.702	0.37823602
378.917	0.37850112
379.131	0.37687114
379.346	0.37394007
379.561	0.37261038
379.775	0.37083667
379.99	0.36959125
380.205	0.36649649
380.419	0.36396095
380.634	0.36206858
380.848	0.36419017
381.063	0.36365667
381.278	0.36497512
381.492	0.3638845
381.707	0.36605288
381.921	0.36569536
382.136	0.36780331
382.35	0.36579135
382.565	0.36539058
382.779	0.36472641
382.994	0.3651468
383.208	0.36370782
383.422	0.36606343
383.637	0.36480798
383.851	0.36673769
384.066	0.36647879
384.28	0.36714529
384.494	0.36700051
384.709	0.3675566
384.923	0.36759841
385.137	0.36603062
385.352	0.36497021
385.566	0.36537888
385.78	0.36330739
385.995	0.36168543
386.209	0.35961633
386.423	0.35915422
386.637	0.35982736
386.852	0.35796561
387.066	0.35654934
387.28	0.35474054
387.494	0.35531727
387.708	0.35577208
387.923	0.35394572
388.137	0.35467964
388.351	0.3550025
388.565	0.35595367
388.779	0.3563636
388.993	0.35818085
389.207	0.35817455
389.421	0.35790996
389.635	0.35581868
389.85	0.35432068
390.064	0.35359948
390.278	0.35375696
390.492	0.35272169
390.706	0.35197704
390.92	0.35108347
391.134	0.35184575
391.348	0.35352587
391.561	0.35202446
391.775	0.35041752
391.989	0.34860621
392.203	0.34788339
392.417	0.34808734
392.631	0.34797127
392.845	0.34587547
393.059	0.34685893
393.273	0.34605125
393.486	0.34503378
393.7	0.34339966
393.914	0.34294374
394.128	0.34153605
394.342	0.34051995
394.555	0.33726727
394.769	0.3365686
394.983	0.33638238
395.197	0.33665199
395.41	0.33572082
395.624	0.33483945
395.838	0.3346464
396.051	0.33692352
396.265	0.33616133
396.479	0.33553835
396.692	0.33474773
396.906	0.3336056
397.12	0.33280075
397.333	0.33228531
397.547	0.32997013
397.76	0.33022263
397.974	0.32961493
398.187	0.32921905
398.401	0.32915695
398.614	0.32888531
398.828	0.32820602
399.041	0.32758562
399.255	0.32642685
399.468	0.32608669
399.682	0.32528434
399.895	0.32469475
400.109	0.32332326
400.322	0.32234197
400.536	0.32091132
400.749	0.32084757
400.962	0.31940211
401.176	0.31861514
401.389	0.31781413
401.602	0.31621377
401.816	0.31619547
402.029	0.31631961
402.242	0.31501798
402.456	0.31437273
402.669	0.31330171
402.882	0.31112861
403.095	0.31204667
403.309	0.31089503
403.522	0.31007585
403.735	0.30918604
403.948	0.30838036
404.161	0.30923765
404.375	0.30945616
404.588	0.30825103
404.801	0.30722419
405.014	0.30615355
405.227	0.30619373
405.44	0.30609134
405.653	0.30485465
405.866	0.30387001
406.079	0.30342425
406.293	0.30264698
406.506	0.30180474
406.719	0.30036138
406.932	0.2990961
407.145	0.2976388
407.358	0.29744248
407.571	0.2958676
407.784	0.29529135
407.996	0.29514513
408.209	0.29428799
408.422	0.29341919
408.635	0.2930299
408.848	0.29211798
409.061	0.29100788
409.274	0.29026524
409.487	0.28913807
409.7	0.28845627
409.912	0.28803342
410.125	0.28724791
410.338	0.28653955
410.551	0.28595312
410.764	0.28514223
410.976	0.28449011
411.189	0.28403905
411.402	0.28262257
411.615	0.28201559
411.827	0.28114356
412.04	0.28087521
412.253	0.28008663
412.465	0.27914996
412.678	0.27815911
412.891	0.27817519
413.103	0.27663763
413.316	0.27616018
413.529	0.27564675
413.741	0.2753536
413.954	0.27505428
414.166	0.27458416
414.379	0.27368365
414.591	0.27353789
414.804	0.27271131
415.016	0.27174153
415.229	0.27069492
415.441	0.26948682
415.654	0.26904371
415.866	0.26839971
416.079	0.26804236
416.291	0.26730882
416.504	0.26714435
416.716	0.26681503
416.928	0.26641871
417.141	0.26542329
417.353	0.2651528
417.566	0.2639894
417.778	0.26358068
417.99	0.26242566
418.203	0.26148416
418.415	0.26086474
418.627	0.26058394
418.839	0.25977359
419.052	0.25992853
419.264	0.25907773
419.476	0.25877976
419.688	0.25812047
419.901	0.25758219
420.113	0.25672953
420.325	0.25592326
420.537	0.25439298
420.749	0.25386771
420.961	0.25333373
421.174	0.25274901
421.386	0.25187086
421.598	0.25116527
421.81	0.25071022
422.022	0.25029031
422.234	0.2500329
422.446	0.24920276
422.658	0.24855335
422.87	0.24828989
423.082	0.24787869
423.294	0.24727963
423.506	0.24694205
423.718	0.24598956
423.93	0.24510149
424.142	0.24426012
424.354	0.24338127
424.566	0.24273474
424.778	0.24214894
424.99	0.24134324
425.202	0.2407121
425.414	0.24058532
425.625	0.24052063
425.837	0.23969158
426.049	0.23925917
426.261	0.23864871
426.473	0.23807049
426.684	0.23769677
426.896	0.23739566
427.108	0.23655445
427.32	0.23649816
427.531	0.23590677
427.743	0.23545242
427.955	0.23535395
428.167	0.23451504
428.378	0.23366023
428.59	0.23329196
428.802	0.23255691
429.013	0.23192465
429.225	0.23112919
429.436	0.23040924
429.648	0.23024571
429.86	0.22997097
430.071	0.22958108
430.283	0.22928804
430.494	0.22869946
430.706	0.2284728
430.917	0.2279241
431.129	0.22737531
431.34	0.22663779
431.552	0.22615079
431.763	0.22560006
431.975	0.22532603
432.186	0.22462371
432.398	0.22411491
432.609	0.22330804
432.821	0.22303673
433.032	0.22262116
433.243	0.22201507
433.455	0.22138052
433.666	0.22105076
433.877	0.2208068
434.089	0.22031423
434.3	0.21944767
434.511	0.21855677
434.723	0.21808155
434.934	0.21739795
435.145	0.21662605
435.356	0.21588169
435.568	0.21558176
435.779	0.21519892
435.99	0.21458257
436.201	0.21423575
436.412	0.21370704
436.624	0.21355456
436.835	0.21325925
437.046	0.21274922
437.257	0.21236854
437.468	0.21230534
437.679	0.21171379
437.89	0.21136002
438.101	0.21093182
438.312	0.21040347
438.523	0.20995111
438.734	0.20967812
438.945	0.20918184
439.156	0.20871118
439.367	0.20840698
439.578	0.2081384
439.789	0.20766108
440	0.20745526
440.211	0.20668514
440.422	0.20624903
440.633	0.20608291
440.844	0.2056615
441.055	0.20509416
441.266	0.20489411
441.477	0.2042306
441.687	0.20400616
441.898	0.20377764
442.109	0.20321161
442.32	0.20277671
442.531	0.20235083
442.741	0.20169462
442.952	0.20123096
443.163	0.20075201
443.374	0.20015779
443.584	0.19967629
443.795	0.1991985
444.006	0.19889294
444.216	0.19841208
444.427	0.19803695
444.638	0.19781268
444.848	0.19741282
445.059	0.19706073
445.27	0.1966166
445.48	0.19597159
445.691	0.19558046
445.901	0.19528337
446.112	0.1947884
446.323	0.19420508
446.533	0.19369886
446.744	0.19325941
446.954	0.19284789
447.165	0.19246331
447.375	0.19217378
447.586	0.19168103
447.796	0.19147872
448.006	0.19120881
448.217	0.19113607
448.427	0.19076245
448.638	0.19043963
448.848	0.19011816
449.058	0.18974155
449.269	0.1894502
449.479	0.18907464
449.689	0.1885873
449.9	0.18827055
450.11	0.18792688
450.32	0.18762212
450.531	0.18728938
450.741	0.18682878
450.951	0.1865757
451.161	0.18624281
451.372	0.18592905
451.582	0.18577445
451.792	0.18520649
452.002	0.18490799
452.212	0.18444069
452.422	0.18418844
452.633	0.18396751
452.843	0.18393564
453.053	0.18352163
453.263	0.18346443
453.473	0.18331792
453.683	0.18332824
453.893	0.18302933
454.103	0.18300505
454.313	0.18269444
454.523	0.18256656
454.733	0.18237157
454.943	0.18219234
455.153	0.18196165
455.363	0.18163628
455.573	0.18122247
455.783	0.18099832
455.993	0.18067436
456.203	0.18049706
456.413	0.18031879
456.623	0.18024388
456.833	0.18033379
457.042	0.18021633
457.252	0.18020063
457.462	0.1801308
457.672	0.18005566
457.882	0.17982874
458.091	0.17954519
458.301	0.17929545
458.511	0.17912469
458.721	0.17877384
458.931	0.17883167
459.14	0.17863067
459.35	0.17873957
459.56	0.17876899
459.769	0.17874097
459.979	0.17882715
460.189	0.17897205
460.398	0.17866587
460.608	0.17865145
460.817	0.17849728
461.027	0.17864219
461.237	0.17860524
461.446	0.1785084
461.656	0.17849978
461.865	0.17853036
462.075	0.17847171
462.284	0.17855742
462.494	0.1783531
462.703	0.17822791
462.913	0.17814585
463.122	0.17801872
463.332	0.17811688
463.541	0.17825688
463.751	0.1782412
463.96	0.1782007
464.169	0.17833852
464.379	0.17854634
464.588	0.1786199
464.797	0.17869236
465.007	0.17871395
465.216	0.1788321
465.425	0.17910214
465.635	0.17934546
465.844	0.17942899
466.053	0.17967788
466.263	0.17977933
466.472	0.17986917
466.681	0.18002055
466.89	0.18011515
467.099	0.18032049
467.309	0.18048852
467.518	0.18075277
467.727	0.18096633
467.936	0.1811733
468.145	0.18135422
468.354	0.18164941
468.563	0.18171819
468.772	0.18178106
468.982	0.18189312
469.191	0.18227823
469.4	0.18245115
469.609	0.18272787
469.818	0.18287137
470.027	0.18314942
470.236	0.1834048
470.445	0.18351405
470.654	0.18348395
470.863	0.18376022
471.072	0.18393734
471.28	0.18419633
471.489	0.18457633
471.698	0.18505531
471.907	0.18547056
472.116	0.18604024
472.325	0.18647684
472.534	0.18700066
472.743	0.18747655
472.951	0.1878685
473.16	0.18824929
473.369	0.18869141
473.578	0.18899052
473.786	0.18945622
473.995	0.18979759
474.204	0.19017702
474.413	0.19043748
474.621	0.19088553
474.83	0.19136971
475.039	0.19180101
475.247	0.19225266
475.456	0.19268158
475.665	0.19316629
475.873	0.19369328
476.082	0.19401813
476.291	0.19453763
476.499	0.19516543
476.708	0.19561665
476.916	0.19623982
477.125	0.19676516
477.333	0.19739796
477.542	0.19816081
477.75	0.19859998
477.959	0.19908702
478.167	0.1997056
478.376	0.20011139
478.584	0.20073128
478.793	0.20127926
479.001	0.20187584
479.209	0.20253556
479.418	0.20315749
479.626	0.20377705
479.834	0.20452534
480.043	0.2052118
480.251	0.20593363
480.459	0.20654205
480.668	0.20722436
480.876	0.20801083
481.084	0.20872324
481.293	0.20949972
481.501	0.21020365
481.709	0.2110711
481.917	0.21180197
482.125	0.21258556
482.334	0.21337354
482.542	0.21418624
482.75	0.21500808
482.958	0.21587854
483.166	0.21667804
483.374	0.21758888
483.583	0.218413
483.791	0.21914521
483.999	0.21985685
484.207	0.22068584
484.415	0.22151577
484.623	0.22220173
484.831	0.22300309
485.039	0.22387236
485.247	0.22484938
485.455	0.22575885
485.663	0.22663381
485.871	0.22750915
486.079	0.22839049
486.287	0.22930928
486.495	0.23015564
486.702	0.23098188
486.91	0.23191891
487.118	0.23277002
487.326	0.23365173
487.534	0.23471152
487.742	0.23570246
487.95	0.23667399
488.157	0.23765653
488.365	0.23873576
488.573	0.23983548
488.781	0.24098365
488.988	0.24202358
489.196	0.2430559
489.404	0.24411933
489.612	0.24523501
489.819	0.24632524
490.027	0.24740169
490.235	0.2483359
490.442	0.24942781
490.65	0.25043103
490.857	0.25160138
491.065	0.25265382
491.273	0.25372994
491.48	0.2548418
491.688	0.25607082
491.895	0.2573773
492.103	0.25874153
492.31	0.25998701
492.518	0.26123668
492.725	0.2624744
492.933	0.26366297
493.14	0.26480767
493.348	0.26583416
493.555	0.26689771
493.763	0.26795054
493.97	0.2691875
494.177	0.27043923
494.385	0.27167522
494.592	0.27290171
494.8	0.27413465
495.007	0.27551529
495.214	0.27681554
495.422	0.27825935
495.629	0.27954327
495.836	0.2809272
496.043	0.28241375
496.251	0.28385344
496.458	0.28507827
496.665	0.28639186
496.872	0.2875266
497.08	0.28884633
497.287	0.29009334
497.494	0.29140725
497.701	0.29278546
497.908	0.29431218
498.115	0.29564546
498.322	0.29703594
498.53	0.29841405
498.737	0.29982926
498.944	0.30117941
499.151	0.30246507
499.358	0.30378263
499.565	0.30521398
499.772	0.30669351
499.979	0.30818634
500.186	0.30973304
500.393	0.31125241
500.6	0.31277195
500.807	0.31428632
501.014	0.31588624
501.221	0.31745507
501.427	0.31896458
501.634	0.32049462
501.841	0.32206581
502.048	0.32366036
502.255	0.32505916
502.462	0.32655379
502.669	0.3280285
502.875	0.32955694
503.082	0.33094715
503.289	0.33231135
503.496	0.33373997
503.702	0.33523454
503.909	0.33674801
504.116	0.33833101
504.323	0.33993092
504.529	0.34155288
504.736	0.34321811
504.943	0.3448162
505.149	0.34647632
505.356	0.34809387
505.563	0.34974252
505.769	0.35132998
505.976	0.35298459
506.182	0.35462758
506.389	0.35629338
506.595	0.35808049
506.802	0.35969953
507.008	0.36125628
507.215	0.36279215
507.421	0.36441828
507.628	0.36600228
507.834	0.36760801
508.041	0.36914146
508.247	0.37079888
508.454	0.37253039
508.66	0.37426466
508.866	0.37592941
509.073	0.37762204
509.279	0.37932469
509.486	0.38092252
509.692	0.38248507
509.898	0.38408687
510.105	0.38575567
510.311	0.38732829
510.517	0.38898635
510.723	0.39059059
510.93	0.392158
511.136	0.3938836
511.342	0.39561003
511.548	0.39717094
511.754	0.39887223
511.961	0.4005606
512.167	0.40227014
512.373	0.40410323
512.579	0.40589295
512.785	0.40752324
512.991	0.40929266
513.197	0.41114371
513.404	0.41297045
513.61	0.41485564
513.816	0.41660178
514.022	0.41831937
514.228	0.42005466
514.434	0.42170537
514.64	0.42334036
514.846	0.42493642
515.052	0.42650004
515.258	0.42811256
515.464	0.42976712
515.669	0.43154287
515.875	0.43329635
516.081	0.43499088
516.287	0.43685734
516.493	0.43873499
516.699	0.44049533
516.905	0.44216488
517.111	0.44374322
517.316	0.44549524
517.522	0.44720234
517.728	0.44882772
517.934	0.45049564
518.139	0.45227589
518.345	0.45404111
518.551	0.45585327
518.757	0.45749248
518.962	0.45916457
519.168	0.46087782
519.374	0.46247153
519.579	0.46405926
519.785	0.46580273
519.991	0.46758587
520.196	0.46934273
520.402	0.47100191
520.607	0.47275403
520.813	0.47459547
521.018	0.47637274
521.224	0.47799108
521.429	0.47973971
521.635	0.4815038
521.84	0.48318257
522.046	0.48480736
522.251	0.48634625
522.457	0.48793072
522.662	0.48967609
522.868	0.49121628
523.073	0.49271502
523.279	0.49446751
523.484	0.49606131
523.689	0.49779347
523.895	0.49958886
524.1	0.50119442
524.305	0.50288492
524.511	0.50460713
524.716	0.50619509
524.921	0.50788007
525.126	0.50945093
525.332	0.51102082
525.537	0.51260422
525.742	0.5142492
525.947	0.51588803
526.153	0.51748933
526.358	0.51912258
526.563	0.52070518
526.768	0.52225722
526.973	0.52387967
527.178	0.52543371
527.383	0.52696515
527.588	0.52850066
527.794	0.52989032
527.999	0.53147024
528.204	0.53288679
528.409	0.534358
528.614	0.53593203
528.819	0.5373909
529.024	0.53876533
529.229	0.5402345
529.434	0.54180544
529.639	0.54336092
529.843	0.54483603
530.048	0.54626238
530.253	0.54780023
530.458	0.54951595
530.663	0.55113069
530.868	0.5526529
531.073	0.55405291
531.278	0.55537903
531.482	0.55672229
531.687	0.55814161
531.892	0.55957276
532.097	0.56094413
532.302	0.56238166
532.506	0.56388175
532.711	0.56543757
532.916	0.56691749
533.12	0.56837749
533.325	0.56971141
533.53	0.57122799
533.734	0.5725264
533.939	0.57392316
534.144	0.57538661
534.348	0.57676126
534.553	0.57810771
534.757	0.57940529
534.962	0.5806107
535.167	0.58196135
535.371	0.58321251
535.576	0.58451977
535.78	0.58581272
535.985	0.58710565
536.189	0.58838538
536.394	0.58976456
536.598	0.5909488
536.803	0.59219669
537.007	0.59329802
537.211	0.59462295
537.416	0.59577934
537.62	0.5969184
537.825	0.59807555
538.029	0.59954068
538.233	0.600826
538.438	0.60224972
538.642	0.60326346
538.846	0.60460039
539.05	0.60586536
539.255	0.60702105
539.459	0.60805661
539.663	0.60917907
539.867	0.61029786
540.072	0.61160536
540.276	0.61268784
540.48	0.61395888
540.684	0.61510917
540.888	0.6163534
541.092	0.61743735
541.297	0.61839985
541.501	0.61944812
541.705	0.6205115
541.909	0.62137112
542.113	0.62228096
542.317	0.62327371
542.521	0.62440052
542.725	0.62555412
542.929	0.62655941
543.133	0.62758451
543.337	0.62874474
543.541	0.6298536
543.745	0.63063754
543.949	0.63165953
544.153	0.63245307
544.357	0.63330702
544.56	0.63430876
544.764	0.63528992
544.968	0.63621223
545.172	0.63707118
545.376	0.63795471
545.58	0.63900797
545.783	0.64004395
545.987	0.64074073
546.191	0.64150818
546.395	0.64238279
546.598	0.64352889
546.802	0.64443273
547.006	0.64527219
547.21	0.64587978
547.413	0.64682777
547.617	0.64775213
547.821	0.64861704
548.024	0.64939668
548.228	0.65005794
548.431	0.65079296
548.635	0.65164642
548.839	0.65233934
549.042	0.6530241
549.246	0.65366349
549.449	0.65427028
549.653	0.65500132
549.856	0.65571496
550.06	0.65641848
550.263	0.65720836
550.467	0.65794055
550.67	0.65881535
550.874	0.65956568
551.077	0.66044151
551.28	0.6612997
551.484	0.66222869
551.687	0.66295559
551.891	0.66381139
552.094	0.6643481
552.297	0.66499714
552.501	0.66551653
552.704	0.66602311
552.907	0.66648169
553.11	0.66698361
553.314	0.66738334
553.517	0.6677782
553.72	0.66837877
553.923	0.66895518
554.127	0.66958721
554.33	0.66997591
554.533	0.67054736
554.736	0.67096722
554.939	0.67158571
555.142	0.67204046
555.345	0.67252608
555.549	0.6729837
555.752	0.6734839
555.955	0.67392134
556.158	0.67456612
556.361	0.67504716
556.564	0.67546744
556.767	0.67589271
556.97	0.67629669
557.173	0.67682944
557.376	0.67729978
557.579	0.67752985
557.782	0.6779216
557.984	0.67840466
558.187	0.67884639
558.39	0.67913746
558.593	0.67953768
558.796	0.6798074
558.999	0.68010382
559.202	0.68047185
559.404	0.68062787
559.607	0.68087988
559.81	0.68119577
560.013	0.68148269
560.216	0.68178452
560.418	0.68229892
560.621	0.68259863
560.824	0.6830521
561.026	0.68329248
561.229	0.6834944
561.432	0.68375669
561.634	0.68403991
561.837	0.68410145
562.04	0.68425021
562.242	0.68431324
562.445	0.68448277
562.647	0.68472383
562.85	0.68477283
563.053	0.68481755
563.255	0.68502943
563.458	0.68523125
563.66	0.68544061
563.863	0.68565931
