Data from 0_1_mm_pl_100pc_Absorbance__0__15-34-37-214.txt Node

Date: Fri Feb 24 15:34:37 CET 2023
User: Ange
Spectrometer: FLMT08341
Trigger mode: 0
Integration Time (sec): 1.000000E-2
Scans to average: 400
Electric dark correction enabled: true
Nonlinearity correction enabled: false
Boxcar width: 3
XAxis mode: Wavelengths
Number of Pixels in Spectrum: 3648
>>>>>Begin Spectral Data<<<<<
345.271	0.0015885
345.487	0.00976179
345.704	-0.00116021
345.921	-0.00710718
346.137	-0.01056761
346.354	0.01468659
346.571	0.05215037
346.787	0.05489229
347.004	0.03481988
347.22	0.06582854
347.437	-0.16807276
347.653	-0.36407903
347.87	0.01789911
348.086	-0.13765498
348.303	-0.15371964
348.519	0.29190277
348.736	0.27836406
348.952	0.26417236
349.169	0.27244193
349.385	0.2833713
349.601	0.28200185
349.818	0.2813532
350.034	0.2804164
350.251	0.28168059
350.467	0.28669451
350.683	0.282322
350.9	0.28570043
351.116	0.28477597
351.332	0.28531324
351.549	0.29574093
351.765	0.30483188
351.981	0.31248534
352.197	0.32434553
352.414	0.33840093
352.63	0.35084548
352.846	0.36048602
353.062	0.36044499
353.278	0.35788745
353.495	0.36624003
353.711	0.37100134
353.927	0.37037676
354.143	0.36956305
354.359	0.36790346
354.575	0.36671366
354.792	0.37732686
355.008	0.36974301
355.224	0.36546926
355.44	0.36559715
355.656	0.36908963
355.872	0.37508269
356.088	0.39258414
356.304	0.39541424
356.52	0.40215785
356.736	0.40983841
356.952	0.41575076
357.168	0.4177567
357.384	0.4255577
357.6	0.41659045
357.816	0.42513983
358.032	0.4338832
358.248	0.44678037
358.464	0.45137723
358.679	0.45978739
358.895	0.46336057
359.111	0.47424344
359.327	0.46628656
359.543	0.47053442
359.759	0.47550336
359.974	0.4785891
360.19	0.47745844
360.406	0.47848465
360.622	0.47824307
360.838	0.48225399
361.053	0.48803639
361.269	0.49097989
361.485	0.49326519
361.701	0.50149936
361.916	0.49979878
362.132	0.50195784
362.348	0.50689364
362.563	0.50862211
362.779	0.50487063
362.995	0.51155698
363.21	0.51670672
363.426	0.52185013
363.641	0.52697387
363.857	0.5335949
364.073	0.53452048
364.288	0.53585314
364.504	0.54550766
364.719	0.54833874
364.935	0.55130056
365.15	0.55444014
365.366	0.55855529
365.581	0.5674131
365.797	0.57212826
366.012	0.56507848
366.228	0.56173388
366.443	0.5726652
366.658	0.57673829
366.874	0.57403196
367.089	0.58035324
367.305	0.58506523
367.52	0.59057545
367.735	0.59205047
367.951	0.58629211
368.166	0.58805646
368.381	0.59806171
368.597	0.59360491
368.812	0.59881651
369.027	0.60356082
369.243	0.61051601
369.458	0.62640516
369.673	0.63089947
369.888	0.63284305
370.104	0.63018057
370.319	0.63603482
370.534	0.63639842
370.749	0.64064097
370.964	0.64015312
371.179	0.64071687
371.395	0.63873264
371.61	0.64906081
371.825	0.64381576
372.04	0.64775882
372.255	0.64539973
372.47	0.64493189
372.685	0.64303056
372.9	0.64645501
373.115	0.64306648
373.33	0.64904522
373.545	0.65132514
373.76	0.6592472
373.975	0.65998776
374.19	0.6628452
374.405	0.66725393
374.62	0.68082385
374.835	0.69092351
375.05	0.69433
375.265	0.69460479
375.48	0.69861442
375.695	0.71330564
375.91	0.71024871
376.125	0.69852295
376.339	0.68768264
376.554	0.69222281
376.769	0.69549698
376.984	0.69783209
377.199	0.70016926
377.414	0.70429743
377.628	0.71782694
377.843	0.73038635
378.058	0.73327976
378.273	0.74190436
378.487	0.74688445
378.702	0.75138477
378.917	0.75500808
379.131	0.75269192
379.346	0.7458239
379.561	0.74439236
379.775	0.74122588
379.99	0.73516952
380.205	0.72924562
380.419	0.72606488
380.634	0.72196248
380.848	0.73300691
381.063	0.73590961
381.278	0.74672071
381.492	0.74821005
381.707	0.76059819
381.921	0.76541235
382.136	0.78004846
382.35	0.7745879
382.565	0.77322926
382.779	0.7725328
382.994	0.77970352
383.208	0.77157839
383.422	0.7827074
383.637	0.78185334
383.851	0.79356354
384.066	0.80349872
384.28	0.80833313
384.494	0.81249459
384.709	0.82207266
384.923	0.82370833
385.137	0.81998229
385.352	0.8202664
385.566	0.82590285
385.78	0.82797756
385.995	0.82695903
386.209	0.82559369
386.423	0.83206773
386.637	0.84168696
386.852	0.83807707
387.066	0.83660191
387.28	0.8326321
387.494	0.84276405
387.708	0.8471676
387.923	0.84617248
388.137	0.85311597
388.351	0.86211812
388.565	0.86978538
388.779	0.8770384
388.993	0.88868002
389.207	0.89305021
389.421	0.90050696
389.635	0.89633776
389.85	0.896446
390.064	0.89586319
390.278	0.90060593
390.492	0.89943364
390.706	0.90246454
390.92	0.90194714
391.134	0.9125011
391.348	0.9279794
391.561	0.93033505
391.775	0.9294744
391.989	0.92398923
392.203	0.92902675
392.417	0.93392633
392.631	0.94144759
392.845	0.93671845
393.059	0.94533088
393.273	0.94581863
393.486	0.94229848
393.7	0.93645051
393.914	0.94250921
394.128	0.93724873
394.342	0.93629298
394.555	0.92899046
394.769	0.93237641
394.983	0.94027233
395.197	0.95025477
395.41	0.95183063
395.624	0.95912759
395.838	0.96074733
396.051	0.97723299
396.265	0.97535436
396.479	0.98150803
396.692	0.98188948
396.906	0.97530671
397.12	0.97225811
397.333	0.97967251
397.547	0.97456561
397.76	0.98580012
397.974	0.98822445
398.187	0.99349757
398.401	1.00574861
398.614	1.01093863
398.828	1.01304919
399.041	1.0169413
399.255	1.01501567
399.468	1.01442213
399.682	1.01488187
399.895	1.01677368
400.109	1.01481451
400.322	1.01417653
400.536	1.00558316
400.749	1.01569879
400.962	1.02148503
401.176	1.02069493
401.389	1.01942181
401.602	1.01174337
401.816	1.01597724
402.029	1.02890867
402.242	1.02278185
402.456	1.02334246
402.669	1.02079135
402.882	1.0120011
403.095	1.02751577
403.309	1.02699375
403.522	1.02788129
403.735	1.02678701
403.948	1.02604157
404.161	1.04276102
404.375	1.0503652
404.588	1.05011611
404.801	1.05146673
405.014	1.04742196
405.227	1.05776548
405.44	1.06178028
405.653	1.06024699
405.866	1.05560776
406.079	1.05444557
406.293	1.05452349
406.506	1.05852479
406.719	1.05620727
406.932	1.05370815
407.145	1.04674557
407.358	1.05976687
407.571	1.05522036
407.784	1.05848792
407.996	1.05981667
408.209	1.05366302
408.422	1.05296665
408.635	1.05846689
408.848	1.05848719
409.061	1.05476146
409.274	1.05175444
409.487	1.04984765
409.7	1.05321189
409.912	1.0553932
410.125	1.05462096
410.338	1.05160682
410.551	1.05404749
410.764	1.05621825
410.976	1.05562884
411.189	1.05614054
411.402	1.05128262
411.615	1.052549
411.827	1.05277003
412.04	1.05490909
412.253	1.05169464
412.465	1.05049602
412.678	1.04779152
412.891	1.05408257
413.103	1.041897
413.316	1.03891089
413.529	1.04289893
413.741	1.04676033
413.954	1.04919752
414.166	1.05085983
414.379	1.04660576
414.591	1.05429597
414.804	1.0509283
415.016	1.04696246
415.229	1.04226673
415.441	1.03705092
415.654	1.03758621
415.866	1.03651278
416.079	1.03716548
416.291	1.03561027
416.504	1.03939069
416.716	1.03955894
416.928	1.04125572
417.141	1.03671789
417.353	1.03833142
417.566	1.02963721
417.778	1.03046197
417.99	1.01925845
418.203	1.01343534
418.415	1.01018549
418.627	1.01157748
418.839	1.0080889
419.052	1.01572332
419.264	1.01490288
419.476	1.01787793
419.688	1.02015141
419.901	1.01871923
420.113	1.01418956
420.325	1.01058176
420.537	1.00211008
420.749	1.00054506
420.961	0.99879741
421.174	0.99563141
421.386	0.99216607
421.598	0.99001951
421.81	0.98754953
422.022	0.98457488
422.234	0.98247589
422.446	0.97749804
422.658	0.97376641
422.87	0.9732945
423.082	0.97012035
423.294	0.96738637
423.506	0.96759977
423.718	0.96489376
423.93	0.96194017
424.142	0.95829968
424.354	0.95350693
424.566	0.95177232
424.778	0.95122526
424.99	0.94774983
425.202	0.94321512
425.414	0.94176793
425.625	0.94234769
425.837	0.93779868
426.049	0.93714915
426.261	0.93261877
426.473	0.92705942
426.684	0.92498175
426.896	0.92458455
427.108	0.92010218
427.32	0.92074462
427.531	0.91459917
427.743	0.91259038
427.955	0.91484161
428.167	0.91127408
428.378	0.90668605
428.59	0.90362124
428.802	0.90007762
429.013	0.89716637
429.225	0.89319964
429.436	0.88781623
429.648	0.88718048
429.86	0.88599662
430.071	0.8841597
430.283	0.88113472
430.494	0.87836827
430.706	0.87688737
430.917	0.87400712
431.129	0.87052386
431.34	0.86632872
431.552	0.86425647
431.763	0.86085567
431.975	0.86060749
432.186	0.8555734
432.398	0.85254457
432.609	0.84639947
432.821	0.84332308
433.032	0.83984668
433.243	0.83623976
433.455	0.83218262
433.666	0.83076114
433.877	0.82930137
434.089	0.82644267
434.3	0.82269787
434.511	0.81762594
434.723	0.81482067
434.934	0.80984054
435.145	0.80499478
435.356	0.79970501
435.568	0.7979427
435.779	0.7947614
435.99	0.79152275
436.201	0.7880118
436.412	0.78563452
436.624	0.78413097
436.835	0.78317874
437.046	0.78131353
437.257	0.77829106
437.468	0.77744923
437.679	0.7758097
437.89	0.7731525
438.101	0.77051249
438.312	0.76664951
438.523	0.76271815
438.734	0.76032909
438.945	0.75682525
439.156	0.75240391
439.367	0.74946183
439.578	0.74731936
439.789	0.7432155
440	0.74044619
440.211	0.73624225
440.422	0.73313326
440.633	0.73152922
440.844	0.72778896
441.055	0.72323919
441.266	0.72147346
441.477	0.71756332
441.687	0.71538776
441.898	0.71236542
442.109	0.7078891
442.32	0.70531083
442.531	0.70158856
442.741	0.69643903
442.952	0.69349543
443.163	0.69038712
443.374	0.68643241
443.584	0.68319259
443.795	0.68034737
444.006	0.67766042
444.216	0.67533112
444.427	0.67122149
444.638	0.66736753
444.848	0.6643931
445.059	0.66144088
445.27	0.6577511
445.48	0.65441649
445.691	0.65181387
445.901	0.64972352
446.112	0.6467919
446.323	0.6430812
446.533	0.63991812
446.744	0.63638131
446.954	0.63295289
447.165	0.62958836
447.375	0.62693147
447.586	0.62447357
447.796	0.62219654
448.006	0.6192169
448.217	0.61716633
448.427	0.61431881
448.638	0.6107428
448.848	0.60651769
449.058	0.60307024
449.269	0.5997547
449.479	0.59664878
449.689	0.59305121
449.9	0.590242
450.11	0.58733047
450.32	0.58561274
450.531	0.58231192
450.741	0.57898771
450.951	0.57604684
451.161	0.57283189
451.372	0.57006723
451.582	0.56887415
451.792	0.56512962
452.002	0.56204956
452.212	0.55888596
452.422	0.55615215
452.633	0.55312297
452.843	0.55022929
453.053	0.54521357
453.263	0.54261865
453.473	0.5395535
453.683	0.53730019
453.893	0.53373189
454.103	0.53137022
454.313	0.52826732
454.523	0.52556098
454.733	0.52260735
454.943	0.5206536
455.153	0.51804221
455.363	0.51554678
455.573	0.51268227
455.783	0.51019521
455.993	0.50754831
456.203	0.50518874
456.413	0.50184788
456.623	0.49844375
456.833	0.4963718
457.042	0.49332903
457.252	0.49028381
457.462	0.48772872
457.672	0.4847941
457.882	0.48222066
458.091	0.47938129
458.301	0.47582895
458.511	0.47302959
458.721	0.47020238
458.931	0.46728269
459.14	0.4644601
459.35	0.46216554
459.56	0.46016975
459.769	0.45818178
459.979	0.45539794
460.189	0.45304201
460.398	0.45057264
460.608	0.44826778
460.817	0.44542818
461.027	0.44253533
461.237	0.43957542
461.446	0.43696638
461.656	0.4345109
461.865	0.43185082
462.075	0.4291729
462.284	0.42673432
462.494	0.42420763
462.703	0.42152253
462.913	0.41941778
463.122	0.41671678
463.332	0.41413002
463.541	0.41177842
463.751	0.40918052
463.96	0.40689842
464.169	0.40455644
464.379	0.40234892
464.588	0.40001088
464.797	0.39778305
465.007	0.39541584
465.216	0.3931965
465.425	0.3908037
465.635	0.3886615
465.844	0.38621016
466.053	0.38385157
466.263	0.38153262
466.472	0.3791109
466.681	0.37677313
466.89	0.37421133
467.099	0.37177471
467.309	0.36925707
467.518	0.36703071
467.727	0.3645234
467.936	0.36209851
468.145	0.35991731
468.354	0.35794702
468.563	0.35547552
468.772	0.35316883
468.982	0.35093653
469.191	0.34889185
469.4	0.34672553
469.609	0.34451085
469.818	0.34252674
470.027	0.34046148
470.236	0.33831296
470.445	0.33613278
470.654	0.33387605
470.863	0.33167392
471.072	0.32950778
471.28	0.3269523
471.489	0.32489837
471.698	0.32297155
471.907	0.32093611
472.116	0.31905335
472.325	0.3170385
472.534	0.315075
472.743	0.31306026
472.951	0.311184
473.16	0.30909799
473.369	0.30709738
473.578	0.30515852
473.786	0.30319094
473.995	0.30108492
474.204	0.29920895
474.413	0.29724525
474.621	0.2953188
474.83	0.29353047
475.039	0.29156362
475.247	0.28989987
475.456	0.28819378
475.665	0.28635662
475.873	0.28447135
476.082	0.28242232
476.291	0.28060794
476.499	0.27884364
476.708	0.27669928
476.916	0.27486957
477.125	0.27298699
477.333	0.2711256
477.542	0.2694166
477.75	0.26754175
477.959	0.26578799
478.167	0.2641139
478.376	0.2622897
478.584	0.2606334
478.793	0.25882904
479.001	0.25704972
479.209	0.25538338
479.418	0.25367689
479.626	0.25194792
479.834	0.25025608
480.043	0.24846995
480.251	0.24678001
480.459	0.24506933
480.668	0.24339313
480.876	0.24164548
481.084	0.24003115
481.293	0.2384124
481.501	0.23675999
481.709	0.23517281
481.917	0.23367824
482.125	0.23201105
482.334	0.23052315
482.542	0.22893895
482.75	0.22724499
482.958	0.22576865
483.166	0.2242232
483.374	0.22262932
483.583	0.22108775
483.791	0.21955409
483.999	0.21794655
484.207	0.21651367
484.415	0.21500208
484.623	0.21345989
484.831	0.21197922
485.039	0.21058527
485.247	0.20898015
485.455	0.20749469
485.663	0.20603143
485.871	0.20452082
486.079	0.20298815
486.287	0.20144659
486.495	0.2000001
486.702	0.19855234
486.91	0.19715803
487.118	0.19570475
487.326	0.19430921
487.534	0.19300285
487.742	0.19170063
487.95	0.19034474
488.157	0.18904381
488.365	0.18770003
488.573	0.18637635
488.781	0.18507856
488.988	0.18374443
489.196	0.18243568
489.404	0.18109509
489.612	0.17983594
489.819	0.17854922
490.027	0.17724885
490.235	0.17599378
490.442	0.17473003
490.65	0.17343926
490.857	0.17233322
491.065	0.17100838
491.273	0.16980256
491.48	0.16856181
491.688	0.16728721
491.895	0.16607467
492.103	0.16488419
492.31	0.16359206
492.518	0.16239888
492.725	0.16124962
492.933	0.16008766
493.14	0.15885513
493.348	0.15761795
493.555	0.15642953
493.763	0.15524174
493.97	0.15404741
494.177	0.15284307
494.385	0.15171966
494.592	0.1506117
494.8	0.14950408
495.007	0.14841262
495.214	0.1473514
495.422	0.14631334
495.629	0.14523803
495.836	0.14412422
496.043	0.14308317
496.251	0.14209125
496.458	0.14095881
496.665	0.1399484
496.872	0.13888164
497.08	0.13788199
497.287	0.13687114
497.494	0.13580071
497.701	0.13475785
497.908	0.13377649
498.115	0.13272645
498.322	0.131727
498.53	0.13065567
498.737	0.12959665
498.944	0.12864312
499.151	0.12765775
499.358	0.12671443
499.565	0.12578066
499.772	0.12477534
499.979	0.12390357
500.186	0.12295811
500.393	0.12200513
500.6	0.121133
500.807	0.12020748
501.014	0.119204
501.221	0.11830689
501.427	0.11725189
501.634	0.11633754
501.841	0.11540412
502.048	0.11444515
502.255	0.11356509
502.462	0.11276579
502.669	0.11191338
502.875	0.11109564
503.082	0.11024535
503.289	0.10935549
503.496	0.10849064
503.702	0.10761168
503.909	0.10670856
504.116	0.10577884
504.323	0.10497836
504.529	0.10416671
504.736	0.10339772
504.943	0.1025723
505.149	0.10183434
505.356	0.10110129
505.563	0.10038991
505.769	0.09960558
505.976	0.0988458
506.182	0.09810032
506.389	0.09735283
506.595	0.09659869
506.802	0.09582479
507.008	0.09505571
507.215	0.09436507
507.421	0.09359291
507.628	0.09282379
507.834	0.09205989
508.041	0.09129161
508.247	0.09056857
508.454	0.08982714
508.66	0.0890485
508.866	0.08834965
509.073	0.08764715
509.279	0.08700466
509.486	0.08630634
509.692	0.08557575
509.898	0.08493278
510.105	0.08435009
510.311	0.08371682
510.517	0.0830837
510.723	0.08235466
510.93	0.08171679
511.136	0.08109144
511.342	0.08037723
511.548	0.07966327
511.754	0.07901851
511.961	0.07831188
512.167	0.07768866
512.373	0.07704219
512.579	0.07641192
512.785	0.0758499
512.991	0.07528767
513.197	0.07462243
513.404	0.07407053
513.61	0.073491
513.816	0.07291255
514.022	0.07234562
514.228	0.07172578
514.434	0.07105723
514.64	0.07048967
514.846	0.06988853
515.052	0.06932622
515.258	0.06877654
515.464	0.06819033
515.669	0.06761997
515.875	0.0671084
516.081	0.0665807
516.287	0.06605818
516.493	0.0655668
516.699	0.06501939
516.905	0.06450703
517.111	0.0639874
517.316	0.06343967
517.522	0.06297279
517.728	0.06240491
517.934	0.06183158
518.139	0.06133882
518.345	0.0608254
518.551	0.06038919
518.757	0.05996201
518.962	0.0594187
519.168	0.05896569
519.374	0.05847114
519.579	0.05794133
519.785	0.05744116
519.991	0.05695562
520.196	0.05646902
520.402	0.05601789
520.607	0.05553625
520.813	0.05511324
521.018	0.05469189
521.224	0.05423085
521.429	0.05375375
521.635	0.05330212
521.84	0.05286562
522.046	0.05239989
522.251	0.05193165
522.457	0.05150881
522.662	0.05115176
522.868	0.05071571
523.073	0.05028615
523.279	0.04982299
523.484	0.04946001
523.689	0.04905755
523.895	0.0486141
524.1	0.04813977
524.305	0.04774873
524.511	0.04728869
524.716	0.0468944
524.921	0.04642933
525.126	0.04599272
525.332	0.04560208
525.537	0.04524072
525.742	0.04484993
525.947	0.04449747
526.153	0.04409871
526.358	0.04376449
526.563	0.04343842
526.768	0.04302988
526.973	0.04265743
527.178	0.04231071
527.383	0.041962
527.588	0.04163483
527.794	0.04130962
527.999	0.04097006
528.204	0.04065274
528.409	0.04028019
528.614	0.03988667
528.819	0.03954268
529.024	0.03920817
529.229	0.03886801
529.434	0.03848993
529.639	0.03816532
529.843	0.03786425
530.048	0.03756731
530.253	0.03726199
530.458	0.03697052
530.663	0.0366565
530.868	0.03636175
531.073	0.03606538
531.278	0.03574083
531.482	0.03542212
531.687	0.03512134
531.892	0.03478342
532.097	0.03444657
532.302	0.03417806
532.506	0.03389455
532.711	0.03365294
532.916	0.033375
533.12	0.03309694
533.325	0.03282786
533.53	0.03255952
533.734	0.03224764
533.939	0.0319006
534.144	0.03158059
534.348	0.03130567
534.553	0.03098163
534.757	0.03069916
534.962	0.03042436
535.167	0.03015705
535.371	0.02993038
535.576	0.02965397
535.78	0.02941044
535.985	0.02916443
536.189	0.0289249
536.394	0.0286711
536.598	0.02843598
536.803	0.02826038
537.007	0.02803613
537.211	0.02778848
537.416	0.02756233
537.62	0.02732817
537.825	0.02712038
538.029	0.02684364
538.233	0.0265665
538.438	0.02632895
538.642	0.02612282
538.846	0.02589461
539.05	0.02564771
539.255	0.02544911
539.459	0.02524974
539.663	0.02501172
539.867	0.0247518
540.072	0.02452778
540.276	0.02429368
540.48	0.02412054
540.684	0.02386197
540.888	0.02367273
541.092	0.02351849
541.297	0.02334444
541.501	0.02310128
541.705	0.0229178
541.909	0.02269724
542.113	0.02254288
542.317	0.02235453
542.521	0.02213871
542.725	0.02196102
542.929	0.02177249
543.133	0.02155649
543.337	0.02135513
543.541	0.02113168
543.745	0.02091951
543.949	0.02071546
544.153	0.02051108
544.357	0.02038553
544.56	0.02021662
544.764	0.02002434
544.968	0.01983983
545.172	0.01964194
545.376	0.01946232
545.58	0.01928257
545.783	0.01908704
545.987	0.01894454
546.191	0.01879919
546.395	0.01869329
546.598	0.01854199
546.802	0.01838048
547.006	0.01822171
547.21	0.01803704
547.413	0.01784653
547.617	0.01767959
547.821	0.01748683
548.024	0.01735289
548.228	0.01718089
548.431	0.01703205
548.635	0.0168879
548.839	0.01675421
549.042	0.01661629
549.246	0.01645467
549.449	0.01632609
549.653	0.01621525
549.856	0.01607918
550.06	0.01590496
550.263	0.01572307
550.467	0.01559549
550.67	0.0154615
550.874	0.01528847
551.077	0.01513828
551.28	0.01500845
551.484	0.01488179
551.687	0.01477604
551.891	0.01459352
552.094	0.01441062
552.297	0.01424584
552.501	0.01407544
552.704	0.0139141
552.907	0.01379289
553.11	0.01369251
553.314	0.01360559
553.517	0.01352165
553.72	0.01339401
553.923	0.01327424
554.127	0.01315078
554.33	0.01302425
554.533	0.01289347
554.736	0.01278209
554.939	0.01262686
555.142	0.0125531
555.345	0.01242238
555.549	0.01231155
555.752	0.01221324
555.955	0.01210047
556.158	0.01197275
556.361	0.01189926
556.564	0.01177261
556.767	0.011693
556.97	0.01164814
557.173	0.01155782
557.376	0.01144039
557.579	0.01133696
557.782	0.01127245
557.984	0.01122348
558.187	0.01114914
558.39	0.01097936
558.593	0.01087087
558.796	0.01079176
558.999	0.01066205
559.202	0.01052637
559.404	0.01035372
559.607	0.01022718
559.81	0.01018601
560.013	0.01009538
560.216	0.00994337
560.418	0.00986732
560.621	0.00978202
560.824	0.00972919
561.026	0.00965958
561.229	0.00953575
561.432	0.00946766
561.634	0.00944713
561.837	0.00937333
562.04	0.00929496
562.242	0.009184
562.445	0.00907525
562.647	0.00896955
562.85	0.00886236
563.053	0.00873072
563.255	0.00865111
563.458	0.00852703
563.66	0.00847417
563.863	0.00842583
564.065	0.00834442
