Data from 0_1_mm_pl_40pc_Absorbance__0__15-26-25-762.txt Node

Date: Fri Feb 24 15:26:25 CET 2023
User: Ange
Spectrometer: FLMT08341
Trigger mode: 0
Integration Time (sec): 1.000000E-2
Scans to average: 400
Electric dark correction enabled: true
Nonlinearity correction enabled: false
Boxcar width: 3
XAxis mode: Wavelengths
Number of Pixels in Spectrum: 3648
>>>>>Begin Spectral Data<<<<<
345.271	0.02720273
345.487	0.01236698
345.704	0.00513932
345.921	-0.00009623
346.137	-0.00956598
346.354	-0.01565617
346.571	-0.05421258
346.787	-0.14158111
347.004	-0.04974425
347.22	-0.06078103
347.437	-0.20499612
347.653	-0.20700807
347.87	0.00874628
348.086	0.32684307
348.303	-0.1303466
348.519	0.706133
348.736	0.65589562
348.952	0.66400091
349.169	0.70122609
349.385	0.75141249
349.601	0.74603121
349.818	0.73447949
350.034	0.71685899
350.251	0.70706192
350.467	0.71864016
350.683	0.68714948
350.9	0.67936599
351.116	0.6660824
351.332	0.65173401
351.549	0.67204809
351.765	0.69777728
351.981	0.70373127
352.197	0.74183429
352.414	0.77499506
352.63	0.79900345
352.846	0.82588425
353.062	0.80340266
353.278	0.77319051
353.495	0.7929157
353.711	0.79269476
353.927	0.79699348
354.143	0.78291879
354.359	0.77019818
354.575	0.76879721
354.792	0.80710302
355.008	0.78419887
355.224	0.77076354
355.44	0.76018954
355.656	0.76485217
355.872	0.7824348
356.088	0.83681525
356.304	0.82846182
356.52	0.83181777
356.736	0.83718656
356.952	0.84142348
357.168	0.83866035
357.384	0.84692318
357.6	0.81073753
357.816	0.82750413
358.032	0.84405127
358.248	0.87850579
358.464	0.88000434
358.679	0.89905282
358.895	0.89363908
359.111	0.91201152
359.327	0.88178551
359.543	0.88781595
359.759	0.89566802
359.974	0.89539137
360.19	0.88337434
360.406	0.88812958
360.622	0.87748844
360.838	0.87338878
361.053	0.87858618
361.269	0.87172736
361.485	0.87554054
361.701	0.88382991
361.916	0.86345115
362.132	0.8627175
362.348	0.8724971
362.563	0.87731945
362.779	0.86407741
362.995	0.86779482
363.21	0.87740642
363.426	0.8810675
363.641	0.87839079
363.857	0.8883821
364.073	0.87353005
364.288	0.86714069
364.504	0.88568879
364.719	0.88070639
364.935	0.88115127
365.15	0.88788503
365.366	0.88273773
365.581	0.89562671
365.797	0.90154928
366.012	0.87972555
366.228	0.86708139
366.443	0.88969706
366.658	0.89297695
366.874	0.8822916
367.089	0.88872274
367.305	0.89382978
367.52	0.89480551
367.735	0.89593331
367.951	0.87503426
368.166	0.8732291
368.381	0.89137534
368.597	0.87840266
368.812	0.8822195
369.027	0.88925947
369.243	0.89482268
369.458	0.92187173
369.673	0.92304424
369.888	0.92087147
370.104	0.91221293
370.319	0.91398178
370.534	0.90426454
370.749	0.90480491
370.964	0.89936268
371.179	0.89589445
371.395	0.88905089
371.61	0.90142149
371.825	0.88289919
372.04	0.88487929
372.255	0.87478502
372.47	0.86337554
372.685	0.85385334
372.9	0.84662854
373.115	0.83549176
373.33	0.841364
373.545	0.83792205
373.76	0.83888771
373.975	0.83010084
374.19	0.82516089
374.405	0.8234348
374.62	0.83317176
374.835	0.84366711
375.05	0.84284937
375.265	0.84469013
375.48	0.84821583
375.695	0.86686185
375.91	0.85963717
376.125	0.84132958
376.339	0.81839965
376.554	0.81827244
376.769	0.81419225
376.984	0.81101955
377.199	0.80676627
377.414	0.80615168
377.628	0.81617334
377.843	0.82481147
378.058	0.82352029
378.273	0.82578056
378.487	0.82747453
378.702	0.82616992
378.917	0.82267165
379.131	0.81141864
379.346	0.80028935
379.561	0.78990829
379.775	0.78160126
379.99	0.76841914
380.205	0.75364751
380.419	0.74506905
380.634	0.73315183
380.848	0.73513024
381.063	0.73320367
381.278	0.7362386
381.492	0.7307862
381.707	0.73661676
381.921	0.7317623
382.136	0.74010582
382.35	0.73340433
382.565	0.72729051
382.779	0.72303447
382.994	0.72335693
383.208	0.71150068
383.422	0.71759706
383.637	0.7111697
383.851	0.71284421
384.066	0.71459666
384.28	0.71215035
384.494	0.70976639
384.709	0.71086906
384.923	0.70583063
385.137	0.69757332
385.352	0.69128535
385.566	0.68882394
385.78	0.68406825
385.995	0.67738181
386.209	0.67186684
386.423	0.67227982
386.637	0.6742643
386.852	0.66767368
387.066	0.6624183
387.28	0.65558463
387.494	0.65871222
387.708	0.65665651
387.923	0.65008309
388.137	0.64909254
388.351	0.6488991
388.565	0.64792289
388.779	0.64788801
388.993	0.6477979
389.207	0.64576994
389.421	0.64419787
389.635	0.63663135
389.85	0.633167
390.064	0.62894753
390.278	0.62602959
390.492	0.62253682
390.706	0.61880289
390.92	0.6150888
391.134	0.61736036
391.348	0.6204351
391.561	0.61697913
391.775	0.61311669
391.989	0.60575492
392.203	0.60363569
392.417	0.60322539
392.631	0.60114609
392.845	0.59326209
393.059	0.59316252
393.273	0.58876127
393.486	0.58470365
393.7	0.58066433
393.914	0.57859518
394.128	0.57382204
394.342	0.57038612
394.555	0.56379347
394.769	0.56193751
394.983	0.56242745
395.197	0.56183183
395.41	0.55841943
395.624	0.55715835
395.838	0.55441272
396.051	0.55728684
396.265	0.55390685
396.479	0.55084457
396.692	0.54822945
396.906	0.54370565
397.12	0.5394686
397.333	0.53897213
397.547	0.53446138
397.76	0.53447016
397.974	0.53273759
398.187	0.53107779
398.401	0.53122849
398.614	0.53024954
398.828	0.52750019
399.041	0.52466303
399.255	0.52157219
399.468	0.51938901
399.682	0.51652929
399.895	0.51438769
400.109	0.51184577
400.322	0.50982961
400.536	0.50579194
400.749	0.50576784
400.962	0.50387796
401.176	0.50069399
401.389	0.49774062
401.602	0.49296625
401.816	0.49157625
402.029	0.49173864
402.242	0.48782045
402.456	0.48537644
402.669	0.48284181
402.882	0.4784001
403.095	0.47848502
403.309	0.47562932
403.522	0.47379729
403.735	0.47107426
403.948	0.46913686
404.161	0.46988418
404.375	0.46962143
404.588	0.46884265
404.801	0.46717467
405.014	0.46468332
405.227	0.46534533
405.44	0.46447598
405.653	0.46312329
405.866	0.46037198
406.079	0.45776078
406.293	0.45582612
406.506	0.45367191
406.719	0.45096073
406.932	0.44858532
407.145	0.44543151
407.358	0.44610364
407.571	0.4437354
407.784	0.44279874
407.996	0.44233044
408.209	0.4400228
408.422	0.4383707
408.635	0.43722775
408.848	0.43562535
409.061	0.43346662
409.274	0.43173675
409.487	0.42974314
409.7	0.42858989
409.912	0.42739048
410.125	0.42599367
410.338	0.42416639
410.551	0.42319583
410.764	0.421894
410.976	0.42089385
411.189	0.41936011
411.402	0.41766126
411.615	0.4169395
411.827	0.4160867
412.04	0.41513103
412.253	0.41317064
412.465	0.41098967
412.678	0.40998361
412.891	0.40955846
413.103	0.40674088
413.316	0.4050246
413.529	0.40494405
413.741	0.40515992
413.954	0.40467246
414.166	0.40337726
414.379	0.40158868
414.591	0.40166234
414.804	0.39999306
415.016	0.3983616
415.229	0.39644418
415.441	0.39505581
415.654	0.39451875
415.866	0.39373037
416.079	0.39301523
416.291	0.39216033
416.504	0.39192763
416.716	0.39104703
416.928	0.39019814
417.141	0.38852936
417.353	0.38759082
417.566	0.38540657
417.778	0.38480784
417.99	0.38235516
418.203	0.38071116
418.415	0.37985265
418.627	0.37963253
418.839	0.37877735
419.052	0.37930377
419.264	0.37825539
419.476	0.3782093
419.688	0.37801954
419.901	0.37716349
420.113	0.3761339
420.325	0.37505649
420.537	0.37333984
420.749	0.37295841
420.961	0.37217737
421.174	0.37132108
421.386	0.37008825
421.598	0.36917489
421.81	0.36844359
422.022	0.36761969
422.234	0.36644934
422.446	0.36527784
422.658	0.36442823
422.87	0.36400779
423.082	0.363322
423.294	0.36245349
423.506	0.36227395
423.718	0.3615675
423.93	0.36046118
424.142	0.35967621
424.354	0.35892085
424.566	0.35806135
424.778	0.35776267
424.99	0.35676065
425.202	0.35586148
425.414	0.35570416
425.625	0.35554632
425.837	0.35462071
426.049	0.35440713
426.261	0.35348762
426.473	0.35243516
426.684	0.35208503
426.896	0.35139466
427.108	0.35014859
427.32	0.35005405
427.531	0.34912413
427.743	0.3486481
427.955	0.34874392
428.167	0.34793622
428.378	0.34713518
428.59	0.34676438
428.802	0.34598923
429.013	0.34498901
429.225	0.34412577
429.436	0.34336663
429.648	0.34336082
429.86	0.34348619
430.071	0.34302765
430.283	0.3425394
430.494	0.34251712
430.706	0.34245712
430.917	0.34181112
431.129	0.34121372
431.34	0.3404545
431.552	0.34022732
431.763	0.33968412
431.975	0.33970932
432.186	0.33880749
432.398	0.33845364
432.609	0.33738847
432.821	0.33711735
433.032	0.33652847
433.243	0.33613542
433.455	0.33537993
433.666	0.33521893
433.877	0.33530974
434.089	0.33517357
434.3	0.33430331
434.511	0.33357561
434.723	0.33295791
434.934	0.33217014
435.145	0.33151426
435.356	0.33052624
435.568	0.3300352
435.779	0.32996218
435.99	0.32934514
436.201	0.3291265
436.412	0.32873653
436.624	0.328616
436.835	0.32855435
437.046	0.32865693
437.257	0.32824201
437.468	0.32843444
437.679	0.32825212
437.89	0.32804396
438.101	0.32779767
438.312	0.32739948
438.523	0.32687375
438.734	0.3265831
438.945	0.32625985
439.156	0.32569369
439.367	0.32538265
439.578	0.32558017
439.789	0.32487456
440	0.32474596
440.211	0.32423899
440.422	0.32399511
440.633	0.32426262
440.844	0.32389894
441.055	0.32297277
441.266	0.32320907
441.477	0.32257635
441.687	0.32251154
441.898	0.32222602
442.109	0.32155738
442.32	0.32136207
442.531	0.32089759
442.741	0.32017373
442.952	0.31993773
443.163	0.31972152
443.374	0.31928262
443.584	0.31896301
443.795	0.31886933
444.006	0.31894075
444.216	0.31886198
444.427	0.31843003
444.638	0.31810818
444.848	0.31783353
445.059	0.31759407
445.27	0.31736864
445.48	0.31700058
445.691	0.31679289
445.901	0.31675472
446.112	0.31658298
446.323	0.31630383
446.533	0.31607828
446.744	0.31575433
446.954	0.3155026
447.165	0.31539314
447.375	0.31549503
447.586	0.31540582
447.796	0.31544636
448.006	0.31536459
448.217	0.31530604
448.427	0.31518582
448.638	0.3148159
448.848	0.31428642
449.058	0.31409293
449.269	0.31393024
449.479	0.3137237
449.689	0.31360062
449.9	0.31344215
450.11	0.31340149
450.32	0.31353427
450.531	0.31339225
450.741	0.31318484
450.951	0.31302635
451.161	0.31275916
451.372	0.31272124
451.582	0.31313369
451.792	0.3126732
452.002	0.31249171
452.212	0.31209486
452.422	0.31205977
452.633	0.31169834
452.843	0.31170872
453.053	0.31078588
453.263	0.31099857
453.473	0.31057301
453.683	0.31069473
453.893	0.31041399
454.103	0.31072405
454.313	0.3104381
454.523	0.31059778
454.733	0.31027752
454.943	0.31070239
455.153	0.310798
455.363	0.31073716
455.573	0.31070618
455.783	0.31080179
455.993	0.31072234
456.203	0.31100095
456.413	0.3105987
456.623	0.31022083
456.833	0.3105022
457.042	0.31025267
457.252	0.31015674
457.462	0.310252
457.672	0.31012556
457.882	0.31023862
458.091	0.31033089
458.301	0.3099877
458.511	0.30992628
458.721	0.30992146
458.931	0.30973698
459.14	0.30973438
459.35	0.30988578
459.56	0.30995193
459.769	0.31025802
459.979	0.31023251
460.189	0.31014999
460.398	0.31010116
460.608	0.31010418
460.817	0.30983137
461.027	0.30978112
461.237	0.30953704
461.446	0.30961683
461.656	0.30972654
461.865	0.30965323
462.075	0.30953542
462.284	0.30960151
462.494	0.3097309
462.703	0.30964142
462.913	0.30952379
463.122	0.30919429
463.332	0.30916647
463.541	0.30924657
463.751	0.30916531
463.96	0.30910663
464.169	0.3091865
464.379	0.3095521
464.588	0.30984737
464.797	0.31010003
465.007	0.31010263
465.216	0.31032231
465.425	0.31034902
465.635	0.31044094
465.844	0.31034617
466.053	0.31039358
466.263	0.31055511
466.472	0.31058955
466.681	0.31067475
466.89	0.31065596
467.099	0.3107814
467.309	0.31079629
467.518	0.31098922
467.727	0.31101359
467.936	0.31104575
468.145	0.31121949
468.354	0.3115265
468.563	0.31159943
468.772	0.31178444
468.982	0.31183543
469.191	0.31212346
469.4	0.31235197
469.609	0.31256488
469.818	0.31294293
470.027	0.31323309
470.236	0.31343837
470.445	0.31363568
470.654	0.31353435
470.863	0.31360435
471.072	0.31365907
471.28	0.31346053
471.489	0.31368214
471.698	0.31381577
471.907	0.31399455
472.116	0.31435128
472.325	0.31460625
472.534	0.31479867
472.743	0.31501247
472.951	0.31543332
473.16	0.31566034
473.369	0.31594505
473.578	0.31612266
473.786	0.31649631
473.995	0.31664357
474.204	0.31694822
474.413	0.3170044
474.621	0.31730585
474.83	0.31754231
475.039	0.3177008
475.247	0.31796774
475.456	0.31833697
475.665	0.31864476
475.873	0.31879733
476.082	0.31884973
476.291	0.31915593
476.499	0.3195547
476.708	0.31955959
476.916	0.31978218
477.125	0.32010352
477.333	0.32055098
477.542	0.32099776
477.75	0.32115868
477.959	0.32148722
478.167	0.32209492
478.376	0.32239905
478.584	0.32266942
478.793	0.32281388
479.001	0.323021
479.209	0.32330116
479.418	0.32363517
479.626	0.32375271
479.834	0.32416906
480.043	0.32444967
480.251	0.32470564
480.459	0.32510272
480.668	0.32549822
480.876	0.32579459
481.084	0.32620314
481.293	0.32646538
481.501	0.32677135
481.709	0.32720012
481.917	0.32755584
482.125	0.32781345
482.334	0.32816007
482.542	0.32852438
482.75	0.32880546
482.958	0.32921094
483.166	0.32959651
483.374	0.32995973
483.583	0.33041399
483.791	0.33073551
483.999	0.3309428
484.207	0.33137255
484.415	0.33174968
484.623	0.33203602
484.831	0.33237422
485.039	0.3327688
485.247	0.3331456
485.455	0.33369671
485.663	0.33417727
485.871	0.33460733
486.079	0.33498379
486.287	0.33541034
486.495	0.33574541
486.702	0.33606272
486.91	0.33650567
487.118	0.33689202
487.326	0.3372456
487.534	0.33772368
487.742	0.33817799
487.95	0.33861418
488.157	0.3391813
488.365	0.33962255
488.573	0.34016127
488.781	0.34072636
488.988	0.341337
489.196	0.34190892
489.404	0.3424225
489.612	0.34294714
489.819	0.34344145
490.027	0.34385603
490.235	0.34430164
490.442	0.34474314
490.65	0.3451946
490.857	0.34578963
491.065	0.34626559
491.273	0.34668049
491.48	0.34716612
491.688	0.3476339
491.895	0.34823906
492.103	0.34874364
492.31	0.34924189
492.518	0.34983923
492.725	0.35049548
492.933	0.35104755
493.14	0.35161399
493.348	0.35196836
493.555	0.35246624
493.763	0.3529767
493.97	0.3535311
494.177	0.35409324
494.385	0.35474944
494.592	0.35533113
494.8	0.35592013
495.007	0.35657402
495.214	0.35713468
495.422	0.35765463
495.629	0.35814339
495.836	0.35862731
496.043	0.35919782
496.251	0.35992037
496.458	0.3604098
496.665	0.36104073
496.872	0.36164598
497.08	0.362268
497.287	0.36286925
497.494	0.36352253
497.701	0.36409347
497.908	0.3647777
498.115	0.36536961
498.322	0.36590997
498.53	0.36643532
498.737	0.36706845
498.944	0.36752163
499.151	0.36809721
499.358	0.36867885
499.565	0.36913884
499.772	0.36980328
499.979	0.37050005
500.186	0.37109926
500.393	0.37186682
500.6	0.3723936
500.807	0.37303978
501.014	0.37379483
501.221	0.37439358
501.427	0.37493266
501.634	0.37553441
501.841	0.37617838
502.048	0.37692289
502.255	0.3774988
502.462	0.37816615
502.669	0.3788732
502.875	0.37962246
503.082	0.3803054
503.289	0.38090054
503.496	0.38159025
503.702	0.38229705
503.909	0.38298365
504.116	0.38362803
504.323	0.38437993
504.529	0.3851711
504.736	0.38590783
504.943	0.38651233
505.149	0.38734159
505.356	0.38807952
505.563	0.38879661
505.769	0.3895475
505.976	0.39014363
506.182	0.3909333
506.389	0.39174779
506.595	0.39244178
506.802	0.39308797
507.008	0.39382658
507.215	0.39451234
507.421	0.39530848
507.628	0.39589233
507.834	0.39661161
508.041	0.39727378
508.247	0.39801325
508.454	0.39873393
508.66	0.39933552
508.866	0.40006277
509.073	0.40094094
509.279	0.40169031
509.486	0.40252662
509.692	0.40325441
509.898	0.40409126
510.105	0.40495688
510.311	0.40568546
510.517	0.40640828
510.723	0.40717319
510.93	0.40790722
511.136	0.40885569
511.342	0.40952467
511.548	0.41026138
511.754	0.41110347
511.961	0.41188662
512.167	0.41253059
512.373	0.41328985
512.579	0.41392718
512.785	0.41479228
512.991	0.41564351
513.197	0.41639922
513.404	0.41723096
513.61	0.41816405
513.816	0.41895764
514.022	0.41979743
514.228	0.42052574
514.434	0.42124274
514.64	0.42202654
514.846	0.42282611
515.052	0.42362246
515.258	0.42442429
515.464	0.42515735
515.669	0.42601416
515.875	0.42686853
516.081	0.42767494
516.287	0.42851075
516.493	0.42937715
516.699	0.43016358
516.905	0.43109033
517.111	0.43189974
517.316	0.4327234
517.522	0.43359366
517.728	0.43438538
517.934	0.43517242
518.139	0.43606091
518.345	0.43683564
518.551	0.43771116
518.757	0.43859528
518.962	0.43938988
519.168	0.44025805
519.374	0.44104335
519.579	0.44181682
519.785	0.44268765
519.991	0.4436324
520.196	0.44446234
520.402	0.44535811
520.607	0.44624265
520.813	0.44727363
521.018	0.44816714
521.224	0.44897384
521.429	0.4498176
521.635	0.45071541
521.84	0.45156428
522.046	0.45240916
522.251	0.45309853
522.457	0.45392306
522.662	0.45495071
522.868	0.45579729
523.073	0.45660101
523.279	0.45747781
523.484	0.45830204
523.689	0.45928846
523.895	0.46026708
524.1	0.46107389
524.305	0.46197467
524.511	0.46285206
524.716	0.46373283
524.921	0.46465181
525.126	0.46553856
525.332	0.46640417
525.537	0.46718597
525.742	0.46806427
525.947	0.46898579
526.153	0.46980476
526.358	0.4707663
526.563	0.47157068
526.768	0.47243783
526.973	0.47344623
527.178	0.4742853
527.383	0.47521378
527.588	0.47616311
527.794	0.47691425
527.999	0.47785932
528.204	0.47877316
528.409	0.47961118
528.614	0.48050993
528.819	0.48134607
529.024	0.48223378
529.229	0.48313803
529.434	0.48413428
529.639	0.48500631
529.843	0.48591879
530.048	0.48685874
530.253	0.48773792
530.458	0.48872733
530.663	0.48966787
530.868	0.49050513
531.073	0.49137818
531.278	0.49227443
531.482	0.49312251
531.687	0.49407919
531.892	0.49490198
532.097	0.49573386
532.302	0.49663613
532.506	0.49753231
532.711	0.49839654
532.916	0.49928485
533.12	0.50020763
533.325	0.50111328
533.53	0.50217213
533.734	0.50303158
533.939	0.50395626
534.144	0.50493234
534.348	0.50584629
534.553	0.50665869
534.757	0.50746433
534.962	0.50827246
535.167	0.50925394
535.371	0.5101164
535.576	0.51101123
535.78	0.51193021
535.985	0.5129042
536.189	0.5138545
536.394	0.51479314
536.598	0.51558725
536.803	0.51657971
537.007	0.5174082
537.211	0.51833532
537.416	0.51913669
537.62	0.52003388
537.825	0.52091195
538.029	0.52196974
538.233	0.52276905
538.438	0.52371436
538.642	0.52442353
538.846	0.52540178
539.05	0.52625385
539.255	0.52709195
539.459	0.52782173
539.663	0.52866958
539.867	0.52948694
540.072	0.53041549
540.276	0.53120581
540.48	0.53214463
540.684	0.53299533
540.888	0.5339487
541.092	0.53489307
541.297	0.5357263
541.501	0.53662007
541.705	0.53754902
541.909	0.53828588
542.113	0.53911206
542.317	0.53992133
542.521	0.5407037
542.725	0.54163763
542.929	0.54253228
543.133	0.54333049
543.337	0.54431992
543.541	0.54523598
543.745	0.5460419
543.949	0.54689957
544.153	0.54765188
544.357	0.54840296
544.56	0.54921608
544.764	0.55003164
544.968	0.5508187
545.172	0.5515431
545.376	0.55236979
545.58	0.55317053
545.783	0.55408728
545.987	0.55484476
546.191	0.55558612
546.395	0.55643827
546.598	0.55735264
546.802	0.55819729
547.006	0.55903611
547.21	0.55965499
547.413	0.56047871
547.617	0.56126245
547.821	0.56200741
548.024	0.56279528
548.228	0.56339894
548.431	0.56417175
548.635	0.56499837
548.839	0.56573104
549.042	0.56656646
549.246	0.5672031
549.449	0.56791166
549.653	0.56874463
549.856	0.56938624
550.06	0.57007833
550.263	0.57086196
550.467	0.57151335
550.67	0.57239217
550.874	0.57302061
551.077	0.57377911
551.28	0.57466561
551.484	0.57548046
551.687	0.57614255
551.891	0.57693874
552.094	0.57751046
552.297	0.5782961
552.501	0.57908017
552.704	0.57973214
552.907	0.5803159
553.11	0.58097083
553.314	0.58155917
553.517	0.58221464
553.72	0.58287793
553.923	0.58347095
554.127	0.58411323
554.33	0.5847106
554.533	0.58546345
554.736	0.58605922
554.939	0.58677272
555.142	0.58748763
555.345	0.58818943
555.549	0.58890939
555.752	0.58964957
555.955	0.59030017
556.158	0.59115001
556.361	0.59181929
556.564	0.59239609
556.767	0.59299681
556.97	0.59362529
557.173	0.59430894
557.376	0.59491973
557.579	0.59538545
557.782	0.59598585
557.984	0.59666403
558.187	0.5973066
558.39	0.59775447
558.593	0.59834505
558.796	0.59887938
558.999	0.5994186
559.202	0.60001275
559.404	0.60045577
559.607	0.60095266
559.81	0.60148498
560.013	0.60197355
560.216	0.60246486
560.418	0.6031009
560.621	0.60357809
560.824	0.60418143
561.026	0.60476487
561.229	0.6052741
561.432	0.60581047
561.634	0.60634172
561.837	0.60674838
562.04	0.60726339
562.242	0.60780244
562.445	0.60822924
562.647	0.60874996
562.85	0.60913523
563.053	0.60962054
563.255	0.61010417
563.458	0.61059815
563.66	0.61100716
563.863	0.61151422
564.065	0.61203131
