Data from 0_1_mm_pl_10pc_Absorbance__0__15-23-40-588.txt Node

Date: Fri Feb 24 15:23:40 CET 2023
User: Ange
Spectrometer: FLMT08341
Trigger mode: 0
Integration Time (sec): 1.000000E-2
Scans to average: 400
Electric dark correction enabled: true
Nonlinearity correction enabled: false
Boxcar width: 3
XAxis mode: Wavelengths
Number of Pixels in Spectrum: 3648
>>>>>Begin Spectral Data<<<<<
345.271	-0.01203705
345.487	-0.00640311
345.704	-0.00273186
345.921	0.00201851
346.137	0.01471175
346.354	0.01222435
346.571	0.02426366
346.787	0.00579969
347.004	0.1407029
347.22	0.05719206
347.437	0.07345709
347.653	0.14410099
347.87	-0.11664959
348.086	-0.35751135
348.303	-0.23571039
348.519	0.36367266
348.736	0.31777115
348.952	0.32540546
349.169	0.33707677
349.385	0.35207683
349.601	0.35281696
349.818	0.35240134
350.034	0.34784385
350.251	0.34872384
350.467	0.34949834
350.683	0.340755
350.9	0.33852676
351.116	0.33737808
351.332	0.33317892
351.549	0.34281907
351.765	0.34934929
351.981	0.35420384
352.197	0.3650436
352.414	0.37357765
352.63	0.37726889
352.846	0.38238822
353.062	0.37288397
353.278	0.36674703
353.495	0.37390757
353.711	0.37067091
353.927	0.37220318
354.143	0.37116556
354.359	0.36666537
354.575	0.36545961
354.792	0.37454852
355.008	0.36694771
355.224	0.36324099
355.44	0.35985439
355.656	0.35830342
355.872	0.36404929
356.088	0.37578996
356.304	0.37389392
356.52	0.37400367
356.736	0.37434147
356.952	0.3726198
357.168	0.37043528
357.384	0.36912071
357.6	0.35947743
357.816	0.36089175
358.032	0.36428452
358.248	0.36924196
358.464	0.36922391
358.679	0.36989626
358.895	0.36751595
359.111	0.37182844
359.327	0.36417792
359.543	0.36349689
359.759	0.36499239
359.974	0.3629753
360.19	0.36177793
360.406	0.36192112
360.622	0.35661386
360.838	0.35454347
361.053	0.35411311
361.269	0.35312462
361.485	0.35291324
361.701	0.35178122
361.916	0.34735111
362.132	0.34738285
362.348	0.34830744
362.563	0.34535455
362.779	0.34149825
362.995	0.34229455
363.21	0.34373221
363.426	0.34371014
363.641	0.34377265
363.857	0.34393145
364.073	0.3410112
364.288	0.33784923
364.504	0.339773
364.719	0.33767582
364.935	0.33707865
365.15	0.33373746
365.366	0.33093924
365.581	0.33180797
365.797	0.33176008
366.012	0.3250898
366.228	0.32106465
366.443	0.32218771
366.658	0.32137562
366.874	0.31890442
367.089	0.32037412
367.305	0.31830061
367.52	0.31786441
367.735	0.31611385
367.951	0.31152804
368.166	0.31114852
368.381	0.31264682
368.597	0.30821884
368.812	0.30782766
369.027	0.30834877
369.243	0.30976255
369.458	0.31183311
369.673	0.31097684
369.888	0.30873238
370.104	0.30565337
370.319	0.30466985
370.534	0.30114378
370.749	0.29797014
370.964	0.29625891
371.179	0.29363213
371.395	0.29085548
371.61	0.29105866
371.825	0.28795549
372.04	0.28781522
372.255	0.28615126
372.47	0.28385619
372.685	0.28074749
372.9	0.27841423
373.115	0.27528838
373.33	0.27444887
373.545	0.27237258
373.76	0.2710999
373.975	0.26799413
374.19	0.26626022
374.405	0.26605226
374.62	0.26726948
374.835	0.26710054
375.05	0.26565035
375.265	0.26419931
375.48	0.26364226
375.695	0.26528945
375.91	0.26275771
376.125	0.25831786
376.339	0.25447517
376.554	0.25263229
376.769	0.25167656
376.984	0.24958031
377.199	0.24762172
377.414	0.24623286
377.628	0.24640703
377.843	0.24650698
378.058	0.24524534
378.273	0.24409249
378.487	0.24298009
378.702	0.24248087
378.917	0.24096158
379.131	0.23843764
379.346	0.23552824
379.561	0.23398216
379.775	0.23179649
379.99	0.22924549
380.205	0.22586602
380.419	0.22457341
380.634	0.22247471
380.848	0.22202698
381.063	0.22089493
381.278	0.22059254
381.492	0.21889097
381.707	0.21838005
381.921	0.2170187
382.136	0.21719295
382.35	0.21485603
382.565	0.21264322
382.779	0.21149027
382.994	0.21124836
383.208	0.20892722
383.422	0.20853417
383.637	0.20696241
383.851	0.20690334
384.066	0.20673775
384.28	0.2056468
384.494	0.20412844
384.709	0.20384029
384.923	0.20229828
385.137	0.20045172
385.352	0.19984656
385.566	0.19852594
385.78	0.19706995
385.995	0.19542686
386.209	0.19324776
386.423	0.19235038
386.637	0.19153555
386.852	0.18947368
387.066	0.18768244
387.28	0.18606729
387.494	0.18650272
387.708	0.18624099
387.923	0.18455292
388.137	0.18378568
388.351	0.18325492
388.565	0.18290551
388.779	0.18223509
388.993	0.18156815
389.207	0.18006556
389.421	0.1797796
389.635	0.17875836
389.85	0.17740994
390.064	0.17673101
390.278	0.17612851
390.492	0.17477333
390.706	0.17475313
390.92	0.17353336
391.134	0.17307702
391.348	0.17276351
391.561	0.17111628
391.775	0.16971551
391.989	0.16854406
392.203	0.16740065
392.417	0.1669951
392.631	0.16628998
392.845	0.16478825
393.059	0.16481035
393.273	0.16379246
393.486	0.16230875
393.7	0.16089622
393.914	0.159933
394.128	0.15861
394.342	0.15788445
394.555	0.15643773
394.769	0.15535768
394.983	0.15493205
395.197	0.15479572
395.41	0.15383166
395.624	0.15323409
395.838	0.15284764
396.051	0.1524115
396.265	0.15193019
396.479	0.15118838
396.692	0.15013565
396.906	0.14933638
397.12	0.14863527
397.333	0.14790997
397.547	0.14751516
397.76	0.14738028
397.974	0.14683442
398.187	0.14676383
398.401	0.14651039
398.614	0.14600433
398.828	0.14537578
399.041	0.14472183
399.255	0.14380993
399.468	0.14316317
399.682	0.14220168
399.895	0.14140483
400.109	0.14049391
400.322	0.14003576
400.536	0.13911178
400.749	0.13899442
400.962	0.13865432
401.176	0.13811465
401.389	0.13769507
401.602	0.13729943
401.816	0.13663387
402.029	0.13652028
402.242	0.13555223
402.456	0.13496198
402.669	0.13409266
402.882	0.13316253
403.095	0.13283095
403.309	0.13223475
403.522	0.1318767
403.735	0.13127069
403.948	0.13066949
404.161	0.13091621
404.375	0.13067936
404.588	0.13023983
404.801	0.12984996
405.014	0.12874307
405.227	0.12907109
405.44	0.12897186
405.653	0.12862502
405.866	0.12804703
406.079	0.12738997
406.293	0.12702119
406.506	0.12659591
406.719	0.12576645
406.932	0.12529281
407.145	0.1245002
407.358	0.12450711
407.571	0.12390724
407.784	0.12360026
407.996	0.12374585
408.209	0.1233029
408.422	0.12274786
408.635	0.12241136
408.848	0.12213034
409.061	0.12184712
409.274	0.12136531
409.487	0.12075766
409.7	0.12070933
409.912	0.12052959
410.125	0.12031469
410.338	0.11986832
410.551	0.11941509
410.764	0.11899888
410.976	0.11877673
411.189	0.11821697
411.402	0.11782485
411.615	0.11753764
411.827	0.1173574
412.04	0.11751106
412.253	0.11740215
412.465	0.11697657
412.678	0.11665693
412.891	0.11658954
413.103	0.11594364
413.316	0.11543273
413.529	0.115103
413.741	0.11500348
413.954	0.11519624
414.166	0.11501517
414.379	0.11449936
414.591	0.114729
414.804	0.11456049
415.016	0.11436818
415.229	0.11401682
415.441	0.11329255
415.654	0.11321584
415.866	0.11329983
416.079	0.11329919
416.291	0.11329313
416.504	0.11315344
416.716	0.11277183
416.928	0.11268459
417.141	0.11234515
417.353	0.11198907
417.566	0.11114222
417.778	0.11074667
417.99	0.11034156
418.203	0.11029469
418.415	0.11025234
418.627	0.1101545
418.839	0.10999245
419.052	0.11031728
419.264	0.11029194
419.476	0.11025545
419.688	0.11012372
419.901	0.11004743
420.113	0.10960441
420.325	0.10949194
420.537	0.10909655
420.749	0.1088938
420.961	0.10866924
421.174	0.10840445
421.386	0.10808957
421.598	0.10803201
421.81	0.10784766
422.022	0.10785684
422.234	0.10785899
422.446	0.10774999
422.658	0.1076837
422.87	0.10771802
423.082	0.10749031
423.294	0.10727171
423.506	0.10704407
423.718	0.1064999
423.93	0.1063445
424.142	0.10614572
424.354	0.10571402
424.566	0.10578526
424.778	0.10583356
424.99	0.10568518
425.202	0.10559872
425.414	0.10540548
425.625	0.10536652
425.837	0.10524735
426.049	0.10498895
426.261	0.10470506
426.473	0.10439042
426.684	0.1045414
426.896	0.10469958
427.108	0.10445854
427.32	0.1043694
427.531	0.10413364
427.743	0.10404645
427.955	0.10403529
428.167	0.10377978
428.378	0.10348691
428.59	0.1034257
428.802	0.10341011
429.013	0.10365801
429.225	0.10379097
429.436	0.10377072
429.648	0.10391449
429.86	0.10391057
430.071	0.10399994
430.283	0.10395401
430.494	0.10374957
430.706	0.1035992
430.917	0.10345122
431.129	0.1031904
431.34	0.10323296
431.552	0.10326838
431.763	0.10319578
431.975	0.10338007
432.186	0.1032091
432.398	0.10345579
432.609	0.10320991
432.821	0.10319013
433.032	0.10306486
433.243	0.10293175
433.455	0.10274488
433.666	0.10281111
433.877	0.10274923
434.089	0.10286277
434.3	0.10275865
434.511	0.10240254
434.723	0.10254751
434.934	0.10248104
435.145	0.10239209
435.356	0.1023458
435.568	0.10239623
435.779	0.10223394
435.99	0.10219772
436.201	0.10197557
436.412	0.10186128
436.624	0.10182049
436.835	0.10173306
437.046	0.1017576
437.257	0.10167446
437.468	0.1020009
437.679	0.10191563
437.89	0.10192244
438.101	0.10184286
438.312	0.10179812
438.523	0.10156025
438.734	0.10151485
438.945	0.1011314
439.156	0.10111179
439.367	0.10103688
439.578	0.10108267
439.789	0.10084026
440	0.10087948
440.211	0.10070212
440.422	0.10091408
440.633	0.10088991
440.844	0.10065965
441.055	0.10036828
441.266	0.10053658
441.477	0.10050799
441.687	0.1005363
441.898	0.10054354
442.109	0.10053063
442.32	0.10068013
442.531	0.10077812
442.741	0.10057297
442.952	0.10048069
443.163	0.10050194
443.374	0.10031014
443.584	0.10029644
443.795	0.10030961
444.006	0.10026287
444.216	0.10029286
444.427	0.10018594
444.638	0.1003132
444.848	0.10033433
445.059	0.10016811
445.27	0.09999373
445.48	0.10003007
445.691	0.10000346
445.901	0.10020519
446.112	0.1000088
446.323	0.09995113
446.533	0.10006953
446.744	0.10004064
446.954	0.09994597
447.165	0.09992837
447.375	0.09983712
447.586	0.09988168
447.796	0.0999345
448.006	0.09986967
448.217	0.09996369
448.427	0.10013495
448.638	0.1001517
448.848	0.10004592
449.058	0.10002835
449.269	0.0999982
449.479	0.10002468
449.689	0.10006308
449.9	0.09995221
450.11	0.09998905
450.32	0.10007517
450.531	0.10012756
450.741	0.10010839
450.951	0.10016619
451.161	0.10016188
451.372	0.10022022
451.582	0.10028461
451.792	0.10013419
452.002	0.10012785
452.212	0.09996097
452.422	0.10003599
452.633	0.10016075
452.843	0.10025199
453.053	0.10022477
453.263	0.10046525
453.473	0.10057877
453.683	0.10086431
453.893	0.10076475
454.103	0.10067473
454.313	0.10056384
454.523	0.10061654
454.733	0.10064661
454.943	0.10058413
455.153	0.10058307
455.363	0.10073694
455.573	0.10088822
455.783	0.10089752
455.993	0.10082783
456.203	0.10084451
456.413	0.10093158
456.623	0.10096317
456.833	0.10105306
457.042	0.10101131
457.252	0.1011481
457.462	0.10135533
457.672	0.10148623
457.882	0.10150655
458.091	0.10150217
458.301	0.10140847
458.511	0.10148293
458.721	0.10150729
458.931	0.10147824
459.14	0.10147813
459.35	0.10151572
459.56	0.10164752
459.769	0.10176703
459.979	0.10190252
460.189	0.10198775
460.398	0.10209421
460.608	0.10212807
460.817	0.10224213
461.027	0.10224247
461.237	0.10238058
461.446	0.10233343
461.656	0.10246703
461.865	0.10246731
462.075	0.10256454
462.284	0.10269225
462.494	0.10291986
462.703	0.10290628
462.913	0.10300696
463.122	0.10302718
463.332	0.10318735
463.541	0.1031923
463.751	0.10322968
463.96	0.10322607
464.169	0.10343048
464.379	0.10361321
464.588	0.10379668
464.797	0.10390228
465.007	0.10405178
465.216	0.10409091
465.425	0.10415904
465.635	0.10417558
465.844	0.10418337
466.053	0.10423937
466.263	0.10417663
466.472	0.1042528
466.681	0.10440143
466.89	0.10442936
467.099	0.10447698
467.309	0.10466232
467.518	0.10481537
467.727	0.10489553
467.936	0.10504281
468.145	0.10522611
468.354	0.10536277
468.563	0.10546759
468.772	0.10548968
468.982	0.1054466
469.191	0.10562597
469.4	0.10566962
469.609	0.10561089
469.818	0.10577028
470.027	0.10597392
470.236	0.10611835
470.445	0.10618109
470.654	0.1062712
470.863	0.10627626
471.072	0.10646059
471.28	0.10655464
471.489	0.10661874
471.698	0.10666382
471.907	0.10680702
472.116	0.10687689
472.325	0.1070598
472.534	0.10707174
472.743	0.10708174
472.951	0.10722717
473.16	0.107512
473.369	0.10761091
473.578	0.10785065
473.786	0.10802295
473.995	0.10813197
474.204	0.10831901
474.413	0.10834227
474.621	0.10838806
474.83	0.10852133
475.039	0.10865597
475.247	0.10869425
475.456	0.10895825
475.665	0.10912165
475.873	0.10932462
476.082	0.1094273
476.291	0.10957288
476.499	0.10967127
476.708	0.10986718
476.916	0.10993973
477.125	0.11015424
477.333	0.11037456
477.542	0.11052339
477.75	0.11072984
477.959	0.11097542
478.167	0.11115542
478.376	0.11134271
478.584	0.11152032
478.793	0.11150898
479.001	0.11166004
479.209	0.11178942
479.418	0.11185166
479.626	0.11205346
479.834	0.11220298
480.043	0.11233798
480.251	0.11257489
480.459	0.11275436
480.668	0.11296507
480.876	0.11319507
481.084	0.11334466
481.293	0.11349073
481.501	0.11361274
481.709	0.1138102
481.917	0.11393565
482.125	0.11404705
482.334	0.11418974
482.542	0.114406
482.75	0.11458975
482.958	0.11474269
483.166	0.11491928
483.374	0.11516929
483.583	0.11542534
483.791	0.11559576
483.999	0.11570945
484.207	0.11593622
484.415	0.11615318
484.623	0.11636872
484.831	0.11652372
485.039	0.11672542
485.247	0.11702038
485.455	0.11730337
485.663	0.11743546
485.871	0.11761041
486.079	0.11778571
486.287	0.11805124
486.495	0.11819061
486.702	0.11834105
486.91	0.11850705
487.118	0.11878785
487.326	0.11904126
487.534	0.11923748
487.742	0.11944873
487.95	0.11965334
488.157	0.11986543
488.365	0.12006025
488.573	0.12029141
488.781	0.12055923
488.988	0.12086399
489.196	0.12106179
489.404	0.12129752
489.612	0.12145997
489.819	0.12171207
490.027	0.12190124
490.235	0.12209314
490.442	0.12223115
490.65	0.12240067
490.857	0.1226829
491.065	0.12293437
491.273	0.12313
491.48	0.12339466
491.688	0.12353511
491.895	0.12381893
492.103	0.12408176
492.31	0.12423378
492.518	0.12441519
492.725	0.12472463
492.933	0.12490629
493.14	0.12516144
493.348	0.12533475
493.555	0.12560341
493.763	0.12588572
493.97	0.12614824
494.177	0.12637757
494.385	0.12661184
494.592	0.12688978
494.8	0.12711981
495.007	0.12732405
495.214	0.12751352
495.422	0.12780009
495.629	0.12800483
495.836	0.12824609
496.043	0.12849394
496.251	0.12878987
496.458	0.12904585
496.665	0.12938617
496.872	0.12964061
497.08	0.12992498
497.287	0.13022925
497.494	0.13053359
497.701	0.13086699
497.908	0.13113843
498.115	0.13136045
498.322	0.13164924
498.53	0.13190035
498.737	0.13213768
498.944	0.13240407
499.151	0.13263682
499.358	0.13298645
499.565	0.13330353
499.772	0.13354921
499.979	0.13382459
500.186	0.13415024
500.393	0.13444482
500.6	0.13470718
500.807	0.13490929
501.014	0.13512777
501.221	0.13542798
501.427	0.13566764
501.634	0.13599919
501.841	0.13619786
502.048	0.1365082
502.255	0.13682068
502.462	0.13712046
502.669	0.13742487
502.875	0.13779193
503.082	0.13798881
503.289	0.13832427
503.496	0.13864659
503.702	0.13889901
503.909	0.13922572
504.116	0.13949495
504.323	0.13972588
504.529	0.14011634
504.736	0.14043943
504.943	0.14066302
505.149	0.1410252
505.356	0.14134015
505.563	0.14168205
505.769	0.14200254
505.976	0.142243
506.182	0.14257964
506.389	0.14296588
506.595	0.14325911
506.802	0.14355053
507.008	0.14383723
507.215	0.14420722
507.421	0.14459845
507.628	0.14490141
507.834	0.14518352
508.041	0.14544414
508.247	0.145784
508.454	0.14614142
508.66	0.14646616
508.866	0.14674628
509.073	0.1470563
509.279	0.14738836
509.486	0.14775304
509.692	0.14808144
509.898	0.14844632
510.105	0.14876834
510.311	0.14913427
510.517	0.14947758
510.723	0.14977575
510.93	0.15012211
511.136	0.15049293
511.342	0.15077728
511.548	0.15113294
511.754	0.15145026
511.961	0.15178613
512.167	0.15216048
512.373	0.15252219
512.579	0.15280566
512.785	0.15316989
512.991	0.15346715
513.197	0.15381677
513.404	0.15414773
513.61	0.15452379
513.816	0.15486752
514.022	0.15524452
514.228	0.15556006
514.434	0.15589119
514.64	0.15629215
514.846	0.15667679
515.052	0.15700836
515.258	0.15732573
515.464	0.15770863
515.669	0.15808776
515.875	0.15848102
516.081	0.15877071
516.287	0.15911968
516.493	0.15952461
516.699	0.15990313
516.905	0.16022459
517.111	0.16057735
517.316	0.16096947
517.522	0.1613419
517.728	0.16173269
517.934	0.16207706
518.139	0.16247675
518.345	0.16283707
518.551	0.16324061
518.757	0.16359867
518.962	0.16401689
519.168	0.16437272
519.374	0.16472212
519.579	0.16507481
519.785	0.16549106
519.991	0.16585295
520.196	0.16621093
520.402	0.16659927
520.607	0.16700104
520.813	0.16742638
521.018	0.16783135
521.224	0.16823086
521.429	0.16862034
521.635	0.16900985
521.84	0.1693456
522.046	0.16972701
522.251	0.17012375
522.457	0.17045603
522.662	0.17082586
522.868	0.1712301
523.073	0.17162771
523.279	0.17206556
523.484	0.17243041
523.689	0.17280305
523.895	0.17322556
524.1	0.17358484
524.305	0.17397106
524.511	0.17435046
524.716	0.17468847
524.921	0.17516333
525.126	0.17553947
525.332	0.17597282
525.537	0.17639737
525.742	0.17683443
525.947	0.17727149
526.153	0.17765305
526.358	0.17803832
526.563	0.17840657
526.768	0.17878842
526.973	0.17920234
527.178	0.17960702
527.383	0.17995243
527.588	0.1804344
527.794	0.18078635
527.999	0.18122984
528.204	0.18164571
528.409	0.18198849
528.614	0.18235821
528.819	0.18275706
529.024	0.18306679
529.229	0.18345408
529.434	0.18386786
529.639	0.18418903
529.843	0.18460879
530.048	0.1849813
530.253	0.18540689
530.458	0.18587749
530.663	0.18630632
530.868	0.18670467
531.073	0.18722683
531.278	0.18766501
531.482	0.18811247
531.687	0.18850077
531.892	0.18883992
532.097	0.18923734
532.302	0.18968649
532.506	0.19008703
532.711	0.19049632
532.916	0.19088197
533.12	0.19135979
533.325	0.19178362
533.53	0.19223049
533.734	0.19257597
533.939	0.19302851
534.144	0.19339485
534.348	0.19379186
534.553	0.19414463
534.757	0.19459662
534.962	0.19502193
535.167	0.19550119
535.371	0.19585948
535.576	0.19637174
535.78	0.19684325
535.985	0.19733421
536.189	0.19781182
536.394	0.19819547
536.598	0.19858746
536.803	0.19901962
537.007	0.19941409
537.211	0.19988042
537.416	0.2003462
537.62	0.20067259
537.825	0.20116917
538.029	0.20166676
538.233	0.20205591
538.438	0.20250641
538.642	0.20287222
538.846	0.2032532
539.05	0.20373545
539.255	0.20409821
539.459	0.20448446
539.663	0.20493193
539.867	0.2053637
540.072	0.20579518
540.276	0.20621769
540.48	0.20666046
540.684	0.20709666
540.888	0.20756494
541.092	0.20796898
541.297	0.20838561
541.501	0.20879687
541.705	0.20920123
541.909	0.20962251
542.113	0.21000999
542.317	0.2104158
542.521	0.21092726
542.725	0.21134445
542.929	0.21177878
543.133	0.21223464
543.337	0.21265247
543.541	0.21309183
543.745	0.2134948
543.949	0.21392456
544.153	0.21431308
544.357	0.21475238
544.56	0.2151653
544.764	0.21560213
544.968	0.21603186
545.172	0.21641421
545.376	0.21677307
545.58	0.21725049
545.783	0.21767059
545.987	0.21806421
546.191	0.2184217
546.395	0.21887037
546.598	0.21931355
546.802	0.21975593
547.006	0.22014315
547.21	0.22060034
547.413	0.22105676
547.617	0.22156278
547.821	0.22200531
548.024	0.22246858
548.228	0.222841
548.431	0.2232926
548.635	0.22367715
548.839	0.22407459
549.042	0.22451194
549.246	0.2248634
549.449	0.22524201
549.653	0.2256747
549.856	0.22606617
550.06	0.22652359
550.263	0.22696272
550.467	0.22731686
550.67	0.2277646
550.874	0.22816047
551.077	0.22862624
551.28	0.22907979
551.484	0.22948668
551.687	0.22986407
551.891	0.23035065
552.094	0.23074255
552.297	0.23121612
552.501	0.23163452
552.704	0.23204399
552.907	0.23239252
553.11	0.23280819
553.314	0.23319166
553.517	0.2335796
553.72	0.23396196
553.923	0.23440931
554.127	0.23481747
554.33	0.23518653
554.533	0.23559195
554.736	0.23589325
554.939	0.23629425
555.142	0.23674507
555.345	0.23704089
555.549	0.23740141
555.752	0.23780966
555.955	0.23819412
556.158	0.23872517
556.361	0.23919747
556.564	0.23949382
556.767	0.23993088
556.97	0.24036334
557.173	0.24079938
557.376	0.24124562
557.579	0.24160039
557.782	0.24197357
557.984	0.24240336
558.187	0.24279676
558.39	0.24314977
558.593	0.2435795
558.796	0.24392194
558.999	0.24429574
559.202	0.24470369
559.404	0.24507866
559.607	0.24544498
559.81	0.24584343
560.013	0.24618099
560.216	0.24658066
560.418	0.246945
560.621	0.24727355
560.824	0.24764941
561.026	0.24803898
561.229	0.24833117
561.432	0.24868966
561.634	0.24900586
561.837	0.24937463
562.04	0.24971929
562.242	0.25013506
562.445	0.25049036
562.647	0.2509673
562.85	0.25129613
563.053	0.25168469
563.255	0.25206979
563.458	0.25249863
563.66	0.25282366
563.863	0.25319429
