Data from 0_1_mm_pl_20pc_Absorbance__0__15-24-24-972.txt Node

Date: Fri Feb 24 15:24:24 CET 2023
User: Ange
Spectrometer: FLMT08341
Trigger mode: 0
Integration Time (sec): 1.000000E-2
Scans to average: 400
Electric dark correction enabled: true
Nonlinearity correction enabled: false
Boxcar width: 3
XAxis mode: Wavelengths
Number of Pixels in Spectrum: 3648
>>>>>Begin Spectral Data<<<<<
345.271	-0.02481251
345.487	-0.00609975
345.704	-0.00937096
345.921	-0.00683258
346.137	-0.00906275
346.354	0.00430218
346.571	0.02523227
346.787	0.02304995
347.004	0.22920576
347.22	0.09578387
347.437	0.05208171
347.653	-0.11356642
347.87	0.10057153
348.086	0.20187701
348.303	-1.04495271
348.519	0.57083334
348.736	0.48110489
348.952	0.47336279
349.169	0.4900943
349.385	0.51300517
349.601	0.51324952
349.818	0.50445281
350.034	0.49900827
350.251	0.49684888
350.467	0.50185654
350.683	0.48572422
350.9	0.48155078
351.116	0.47367598
351.332	0.46612824
351.549	0.47699139
351.765	0.48869111
351.981	0.49292967
352.197	0.50874677
352.414	0.52728878
352.63	0.5397639
352.846	0.5547503
353.062	0.54102859
353.278	0.52836641
353.495	0.53823737
353.711	0.53844581
353.927	0.54127522
354.143	0.53837989
354.359	0.52991697
354.575	0.53094614
354.792	0.54537235
355.008	0.53433983
355.224	0.52324407
355.44	0.5188257
355.656	0.51347848
355.872	0.52169769
356.088	0.54614997
356.304	0.54637936
356.52	0.54765101
356.736	0.55542839
356.952	0.55709882
357.168	0.56141008
357.384	0.56425772
357.6	0.54300107
357.816	0.54488936
358.032	0.55365642
358.248	0.5652455
358.464	0.56200996
358.679	0.56333559
358.895	0.56143274
359.111	0.57071753
359.327	0.56101973
359.543	0.55947446
359.759	0.56306167
359.974	0.56024853
360.19	0.55757819
360.406	0.55834873
360.622	0.55245599
360.838	0.54767705
361.053	0.549277
361.269	0.54192838
361.485	0.54529875
361.701	0.5462805
361.916	0.53584153
362.132	0.53501372
362.348	0.54023493
362.563	0.53876046
362.779	0.5346174
362.995	0.53596647
363.21	0.54020389
363.426	0.54159342
363.641	0.54080087
363.857	0.54293771
364.073	0.53759066
364.288	0.53178937
364.504	0.53572044
364.719	0.53392895
364.935	0.53118184
365.15	0.5301175
365.366	0.52718092
365.581	0.5296447
365.797	0.53342656
366.012	0.522947
366.228	0.51375584
366.443	0.52124424
366.658	0.520273
366.874	0.51309077
367.089	0.51524672
367.305	0.51213474
367.52	0.51277675
367.735	0.51047147
367.951	0.50162105
368.166	0.50283714
368.381	0.50955147
368.597	0.50164508
368.812	0.50353425
369.027	0.50507392
369.243	0.50743606
369.458	0.51479523
369.673	0.51106698
369.888	0.50790927
370.104	0.5062946
370.319	0.50482588
370.534	0.50112108
370.749	0.49967012
370.964	0.4972497
371.179	0.49502136
371.395	0.49070259
371.61	0.49168936
371.825	0.48499719
372.04	0.48215853
372.255	0.47931426
372.47	0.47305728
372.685	0.46728475
372.9	0.46485911
373.115	0.45877454
373.33	0.45949515
373.545	0.45815781
373.76	0.45568219
373.975	0.45352746
374.19	0.45116337
374.405	0.44855433
374.62	0.45155234
374.835	0.45290652
375.05	0.45030724
375.265	0.44864258
375.48	0.44811127
375.695	0.4526445
375.91	0.45001434
376.125	0.44222032
376.339	0.4346644
376.554	0.43215853
376.769	0.4305009
376.984	0.42769561
377.199	0.42508611
377.414	0.4229013
377.628	0.42594453
377.843	0.42688015
378.058	0.42514912
378.273	0.42555494
378.487	0.42393898
378.702	0.42300007
378.917	0.4212943
379.131	0.41587165
379.346	0.41112636
379.561	0.40790348
379.775	0.40383294
379.99	0.39925021
380.205	0.39321093
380.419	0.39000091
380.634	0.38561601
380.848	0.38521306
381.063	0.38382437
381.278	0.38384502
381.492	0.38086035
381.707	0.38144777
381.921	0.37953307
382.136	0.38118222
382.35	0.37757094
382.565	0.37431159
382.779	0.37179776
382.994	0.37085261
383.208	0.36622179
383.422	0.36608042
383.637	0.36347266
383.851	0.3631082
384.066	0.36275466
384.28	0.36135005
384.494	0.35998864
384.709	0.36042303
384.923	0.35765445
385.137	0.35438475
385.352	0.35223441
385.566	0.35047122
385.78	0.34741404
385.995	0.34438204
386.209	0.34095795
386.423	0.34077838
386.637	0.33984226
386.852	0.33679678
387.066	0.3345309
387.28	0.33186266
387.494	0.33240895
387.708	0.33142578
387.923	0.32811753
388.137	0.3272697
388.351	0.32727305
388.565	0.32599186
388.779	0.32563502
388.993	0.32478096
389.207	0.3228433
389.421	0.32191323
389.635	0.31925923
389.85	0.31689732
390.064	0.31544683
390.278	0.31408752
390.492	0.31217922
390.706	0.31131599
390.92	0.30966946
391.134	0.30942928
391.348	0.31001484
391.561	0.30760372
391.775	0.3048433
391.989	0.30213464
392.203	0.3007812
392.417	0.30024333
392.631	0.29997117
392.845	0.29659772
393.059	0.29652345
393.273	0.29507162
393.486	0.29293696
393.7	0.29039473
393.914	0.28888995
394.128	0.28604139
394.342	0.28523307
394.555	0.28304274
394.769	0.28146952
394.983	0.2810864
395.197	0.28068321
395.41	0.27906756
395.624	0.27800049
395.838	0.27610658
396.051	0.27619154
396.265	0.27563764
396.479	0.2748103
396.692	0.27377541
396.906	0.27202884
397.12	0.27073294
397.333	0.27057706
397.547	0.26884677
397.76	0.26820796
397.974	0.26706949
398.187	0.26618906
398.401	0.26622331
398.614	0.26498928
398.828	0.26380479
399.041	0.26323385
399.255	0.26167497
399.468	0.26044624
399.682	0.25919825
399.895	0.258141
400.109	0.2571673
400.322	0.25609096
400.536	0.25374902
400.749	0.25354161
400.962	0.25262546
401.176	0.25145589
401.389	0.25040436
401.602	0.24876625
401.816	0.24817777
402.029	0.24817362
402.242	0.24657032
402.456	0.24547218
402.669	0.24379041
402.882	0.24206335
403.095	0.24220253
403.309	0.24060992
403.522	0.23985714
403.735	0.23888051
403.948	0.2380435
404.161	0.23895728
404.375	0.23850563
404.588	0.23774639
404.801	0.23728767
405.014	0.23594157
405.227	0.23620227
405.44	0.23596326
405.653	0.23499296
405.866	0.23392745
406.079	0.23308937
406.293	0.23248282
406.506	0.23198229
406.719	0.23048827
406.932	0.22949965
407.145	0.22805001
407.358	0.22825524
407.571	0.22692854
407.784	0.22607014
407.996	0.22569736
408.209	0.2248331
408.422	0.22409248
408.635	0.22359226
408.848	0.22241407
409.061	0.22196119
409.274	0.22123973
409.487	0.22016218
409.7	0.21983563
409.912	0.21937182
410.125	0.2188007
410.338	0.2184229
410.551	0.21791827
410.764	0.2175899
410.976	0.21742727
411.189	0.21691556
411.402	0.21624809
411.615	0.21577587
411.827	0.2152661
412.04	0.21490793
412.253	0.21420645
412.465	0.21332116
412.678	0.21268055
412.891	0.21248632
413.103	0.21150787
413.316	0.21100081
413.529	0.21059371
413.741	0.2102539
413.954	0.21033573
414.166	0.21000975
414.379	0.20918996
414.591	0.20939627
414.804	0.2086327
415.016	0.20821431
415.229	0.2076758
415.441	0.20681842
415.654	0.20649258
415.866	0.20628669
416.079	0.20613709
416.291	0.20602176
416.504	0.20593485
416.716	0.20561531
416.928	0.20530382
417.141	0.20472362
417.353	0.20438489
417.566	0.20325373
417.778	0.20296282
417.99	0.20212438
418.203	0.20153831
418.415	0.2013408
418.627	0.20118015
418.839	0.20067047
419.052	0.20089611
419.264	0.20061623
419.476	0.2005436
419.688	0.20068643
419.901	0.20027714
420.113	0.19959675
420.325	0.19932654
420.537	0.19866568
420.749	0.19852097
420.961	0.19824053
421.174	0.1975405
421.386	0.19698184
421.598	0.19684113
421.81	0.19665192
422.022	0.19651371
422.234	0.19620615
422.446	0.19593338
422.658	0.195661
422.87	0.19581915
423.082	0.19550387
423.294	0.19504211
423.506	0.19490593
423.718	0.1944408
423.93	0.19380717
424.142	0.19357848
424.354	0.19291114
424.566	0.19266311
424.778	0.19265741
424.99	0.19219767
425.202	0.19181045
425.414	0.19194628
425.625	0.19184376
425.837	0.19138615
426.049	0.19133746
426.261	0.19098121
426.473	0.1907287
426.684	0.19073529
426.896	0.19056869
427.108	0.19019627
427.32	0.19040471
427.531	0.19029842
427.743	0.18992375
427.955	0.19000002
428.167	0.18972357
428.378	0.18943887
428.59	0.18929127
428.802	0.18917108
429.013	0.18872705
429.225	0.18886785
429.436	0.18859743
429.648	0.1884688
429.86	0.18837944
430.071	0.18834135
430.283	0.18828115
430.494	0.18822242
430.706	0.18812025
430.917	0.18791526
431.129	0.18768674
431.34	0.18748322
431.552	0.18751045
431.763	0.18704107
431.975	0.18727563
432.186	0.18703613
432.398	0.1870523
432.609	0.18656254
432.821	0.18649108
433.032	0.18639256
433.243	0.18622769
433.455	0.18585553
433.666	0.18583308
433.877	0.18571971
434.089	0.18564826
434.3	0.18544149
434.511	0.18493625
434.723	0.18493595
434.934	0.18486096
435.145	0.18433203
435.356	0.18403004
435.568	0.18411002
435.779	0.18404226
435.99	0.18383575
436.201	0.18364225
436.412	0.18322829
436.624	0.18339642
436.835	0.18329803
437.046	0.18337484
437.257	0.18317235
437.468	0.18359142
437.679	0.18372355
437.89	0.183766
438.101	0.18378836
438.312	0.18399688
438.523	0.18378273
438.734	0.18375747
438.945	0.18359063
439.156	0.18319403
439.367	0.18329356
439.578	0.18330949
439.789	0.1829774
440	0.18313895
440.211	0.18306226
440.422	0.18297998
440.633	0.1830895
440.844	0.18289242
441.055	0.1826434
441.266	0.18275836
441.477	0.18255006
441.687	0.18248584
441.898	0.18240032
442.109	0.18240307
442.32	0.18225927
442.531	0.18223753
442.741	0.18183632
442.952	0.18172727
443.163	0.18186296
443.374	0.18175481
443.584	0.1816542
443.795	0.1820213
444.006	0.18196024
444.216	0.1821497
444.427	0.1819964
444.638	0.1818924
444.848	0.18185267
445.059	0.18194032
445.27	0.1814449
445.48	0.18125114
445.691	0.18112669
445.901	0.18125786
446.112	0.18099158
446.323	0.18073093
446.533	0.18058904
446.744	0.18063696
446.954	0.18061391
447.165	0.18037137
447.375	0.18038913
447.586	0.18047317
447.796	0.18062523
448.006	0.18044968
448.217	0.18054193
448.427	0.18048834
448.638	0.1806307
448.848	0.1802385
449.058	0.18008145
449.269	0.18008064
449.479	0.18014553
449.689	0.17997235
449.9	0.17998438
450.11	0.17998242
450.32	0.18003795
450.531	0.17996348
450.741	0.17978342
450.951	0.1797818
451.161	0.17989324
451.372	0.17979572
451.582	0.18007309
451.792	0.18004405
452.002	0.17999927
452.212	0.17992331
452.422	0.17985302
452.633	0.17959632
452.843	0.17979071
453.053	0.17945872
453.263	0.17965162
453.473	0.17987622
453.683	0.17999486
453.893	0.17986735
454.103	0.18007841
454.313	0.17998197
454.523	0.18010797
454.733	0.18013673
454.943	0.18017436
455.153	0.18026851
455.363	0.18047182
455.573	0.18040073
455.783	0.18045026
455.993	0.18023813
456.203	0.18019739
456.413	0.18016064
456.623	0.18014083
456.833	0.18020071
457.042	0.18029072
457.252	0.18038618
457.462	0.18055279
457.672	0.18064784
457.882	0.18056677
458.091	0.18055005
458.301	0.18044047
458.511	0.18046465
458.721	0.18046318
458.931	0.18058729
459.14	0.18059337
459.35	0.18076771
459.56	0.18091923
459.769	0.18120877
459.979	0.18128827
460.189	0.1812406
460.398	0.1812359
460.608	0.18137911
460.817	0.18132969
461.027	0.18139349
461.237	0.18141229
461.446	0.18148628
461.656	0.18178596
461.865	0.18182018
462.075	0.18183066
462.284	0.18219442
462.494	0.18231113
462.703	0.18231425
462.913	0.18247823
463.122	0.18236675
463.332	0.18265804
463.541	0.18273843
463.751	0.18271746
463.96	0.18293208
464.169	0.18313025
464.379	0.18331561
464.588	0.18365206
464.797	0.18367578
465.007	0.18404029
465.216	0.18417268
465.425	0.18414577
465.635	0.18425956
465.844	0.18426161
466.053	0.18431232
466.263	0.18441007
466.472	0.18443218
466.681	0.18460556
466.89	0.18466118
467.099	0.18486774
467.309	0.18506869
467.518	0.18523176
467.727	0.18538713
467.936	0.18543296
468.145	0.18562553
468.354	0.18588304
468.563	0.18596252
468.772	0.18610624
468.982	0.18616857
469.191	0.18631735
469.4	0.18647138
469.609	0.18650926
469.818	0.18673836
470.027	0.18692632
470.236	0.18703324
470.445	0.18722115
470.654	0.18729969
470.863	0.18739885
471.072	0.1875501
471.28	0.1876303
471.489	0.1878225
471.698	0.18807645
471.907	0.18815349
472.116	0.18841128
472.325	0.18868073
472.534	0.18885172
472.743	0.18892099
472.951	0.18913776
473.16	0.1894028
473.369	0.18961154
473.578	0.18976428
473.786	0.18991697
473.995	0.19005315
474.204	0.19022442
474.413	0.19033912
474.621	0.19036526
474.83	0.19057905
475.039	0.19081858
475.247	0.19096254
475.456	0.19124325
475.665	0.19150163
475.873	0.19167771
476.082	0.1918354
476.291	0.19199181
476.499	0.19220496
476.708	0.19244738
476.916	0.19251821
477.125	0.19274823
477.333	0.19289875
477.542	0.1931154
477.75	0.1934377
477.959	0.19370547
478.167	0.1939115
478.376	0.1941444
478.584	0.19433173
478.793	0.19456533
479.001	0.19485344
479.209	0.19502455
479.418	0.19512813
479.626	0.19531853
479.834	0.19563233
480.043	0.1959438
480.251	0.19612874
480.459	0.19637968
480.668	0.19666499
480.876	0.19697065
481.084	0.1973348
481.293	0.197524
481.501	0.19771649
481.709	0.19807294
481.917	0.19828135
482.125	0.19846247
482.334	0.19874365
482.542	0.19895913
482.75	0.19925099
482.958	0.19950178
483.166	0.19981287
483.374	0.20011173
483.583	0.20047089
483.791	0.20068042
483.999	0.20090483
484.207	0.20120855
484.415	0.20149905
484.623	0.20171055
484.831	0.2019457
485.039	0.20219612
485.247	0.20256296
485.455	0.20290327
485.663	0.20306784
485.871	0.2033622
486.079	0.20358958
486.287	0.20391635
486.495	0.20411941
486.702	0.20431935
486.91	0.20451741
487.118	0.20487796
487.326	0.20515871
487.534	0.20540393
487.742	0.20571191
487.95	0.20598856
488.157	0.20631563
488.365	0.2066742
488.573	0.20700863
488.781	0.20736061
488.988	0.20783619
489.196	0.20816125
489.404	0.20856103
489.612	0.20891953
489.819	0.2092711
490.027	0.20956326
490.235	0.20991585
490.442	0.21018785
490.65	0.21050229
490.857	0.21085812
491.065	0.21114993
491.273	0.21146332
491.48	0.21187469
491.688	0.21214365
491.895	0.21250133
492.103	0.21282095
492.31	0.21314116
492.518	0.21345053
492.725	0.2138245
492.933	0.21418262
493.14	0.21458134
493.348	0.2149086
493.555	0.21525046
493.763	0.2155632
493.97	0.21597066
494.177	0.21635918
494.385	0.21672991
494.592	0.21711195
494.8	0.21739133
495.007	0.21777621
495.214	0.21812847
495.422	0.2184727
495.629	0.21882775
495.836	0.21912234
496.043	0.21947289
496.251	0.21995676
496.458	0.22038637
496.665	0.22085727
496.872	0.2212457
497.08	0.22159446
497.287	0.22202863
497.494	0.22244213
497.701	0.22282239
497.908	0.22316047
498.115	0.22349964
498.322	0.22390103
498.53	0.22430701
498.737	0.2246766
498.944	0.22504127
499.151	0.22549589
499.358	0.22590438
499.565	0.22626754
499.772	0.22670242
499.979	0.22705731
500.186	0.2274705
500.393	0.22780931
500.6	0.22813079
500.807	0.22855142
501.014	0.22899599
501.221	0.22936242
501.427	0.2297835
501.634	0.23021259
501.841	0.23065071
502.048	0.23103091
502.255	0.23136793
502.462	0.2317632
502.669	0.23222347
502.875	0.23272758
503.082	0.23313118
503.289	0.23353046
503.496	0.23401545
503.702	0.23441112
503.909	0.23493246
504.116	0.23530619
504.323	0.23561303
504.529	0.23609873
504.736	0.2366475
504.943	0.23709217
505.149	0.23767592
505.356	0.23806886
505.563	0.23854626
505.769	0.23904718
505.976	0.23944706
506.182	0.2398439
506.389	0.24037287
506.595	0.24083341
506.802	0.24126318
507.008	0.24175334
507.215	0.24225717
507.421	0.24279705
507.628	0.2432804
507.834	0.2436378
508.041	0.24403888
508.247	0.24453209
508.454	0.24502714
508.66	0.24544088
508.866	0.2458401
509.073	0.24626378
509.279	0.24677371
509.486	0.24726994
509.692	0.2477289
509.898	0.24811916
510.105	0.24865935
510.311	0.2491315
510.517	0.24965326
510.723	0.25009103
510.93	0.25055912
511.136	0.25105472
511.342	0.25155039
511.548	0.2520058
511.754	0.25249978
511.961	0.25293981
512.167	0.25348332
512.373	0.25402069
512.579	0.25450779
512.785	0.25505287
512.991	0.255556
513.197	0.25608116
513.404	0.25665455
513.61	0.257169
513.816	0.25763007
514.022	0.25813745
514.228	0.2586399
514.434	0.25909252
514.64	0.25955228
514.846	0.26002828
515.052	0.26046845
515.258	0.26091802
515.464	0.26143297
515.669	0.26188544
515.875	0.26248281
516.081	0.26307677
516.287	0.26361651
516.493	0.26422567
516.699	0.26475321
516.905	0.26528848
517.111	0.26582266
517.316	0.26630835
517.522	0.26681549
517.728	0.26733447
517.934	0.26784467
518.139	0.26837043
518.345	0.26884837
518.551	0.26946013
518.757	0.27002948
518.962	0.27054309
519.168	0.27102842
519.374	0.27147556
519.579	0.2720256
519.785	0.27260818
519.991	0.27309306
520.196	0.27351462
520.402	0.27396152
520.607	0.27449395
520.813	0.27509583
521.018	0.27563522
521.224	0.27615479
521.429	0.27671154
521.635	0.27727544
521.84	0.27782956
522.046	0.27838062
522.251	0.27893458
522.457	0.27950718
522.662	0.28002901
522.868	0.28053025
523.073	0.28105675
523.279	0.28165733
523.484	0.28220462
523.689	0.28275332
523.895	0.28330739
524.1	0.28385566
524.305	0.28440103
524.511	0.28501695
524.716	0.28555759
524.921	0.28618662
525.126	0.28672794
525.332	0.28727722
525.537	0.28785872
525.742	0.28850153
525.947	0.28905649
526.153	0.28960248
526.358	0.2901079
526.563	0.29062871
526.768	0.2911774
526.973	0.29172149
527.178	0.2922413
527.383	0.29277783
527.588	0.29336146
527.794	0.29388314
527.999	0.2944634
528.204	0.29498801
528.409	0.29547245
528.614	0.29606939
528.819	0.29663456
529.024	0.29714087
529.229	0.29770585
529.434	0.29824713
529.639	0.29880321
529.843	0.29943014
530.048	0.29992464
530.253	0.30049676
530.458	0.3011282
530.663	0.30170388
530.868	0.30230891
531.073	0.30282051
531.278	0.30339245
531.482	0.30395494
531.687	0.30447204
531.892	0.30495184
532.097	0.30549136
532.302	0.30603908
532.506	0.30665809
532.711	0.30712629
532.916	0.30769783
533.12	0.30833441
533.325	0.30884282
533.53	0.30944567
533.734	0.30992279
533.939	0.31047004
534.144	0.31103732
534.348	0.31152451
534.553	0.31199186
534.757	0.31259489
534.962	0.31315766
535.167	0.31375557
535.371	0.31431567
535.576	0.31496719
535.78	0.31556783
535.985	0.31615227
536.189	0.31670456
536.394	0.31720206
536.598	0.31777484
536.803	0.31834645
537.007	0.31888804
537.211	0.31951955
537.416	0.32007128
537.62	0.32066394
537.825	0.32131723
538.029	0.32196373
538.233	0.322422
538.438	0.32300602
538.642	0.32344753
538.846	0.32400288
539.05	0.32447675
539.255	0.32492242
539.459	0.32541921
539.663	0.32605068
539.867	0.32658224
540.072	0.32714009
540.276	0.32768792
540.48	0.32834695
540.684	0.32896148
540.888	0.32949062
541.092	0.33004599
541.297	0.33052852
541.501	0.33114597
541.705	0.33160193
541.909	0.33205174
542.113	0.33248744
542.317	0.3330641
542.521	0.33359886
542.725	0.33422648
542.929	0.33475732
543.133	0.33541301
543.337	0.33596842
543.541	0.33656839
543.745	0.33712054
543.949	0.33767911
544.153	0.3381359
544.357	0.338624
544.56	0.33909721
544.764	0.33966164
544.968	0.34012717
545.172	0.34048034
545.376	0.34095167
545.58	0.3414771
545.783	0.34203291
545.987	0.34251833
546.191	0.3429385
546.395	0.34352787
546.598	0.34418039
546.802	0.3447283
547.006	0.34522022
547.21	0.3456209
547.413	0.34619814
547.617	0.34685905
547.821	0.34732363
548.024	0.34781148
548.228	0.34823382
548.431	0.34874262
548.635	0.3493258
548.839	0.34976123
549.042	0.35017961
549.246	0.35064604
549.449	0.35116173
549.653	0.35173929
549.856	0.35223909
550.06	0.35273387
550.263	0.35331278
550.467	0.35383363
550.67	0.35433611
550.874	0.3547752
551.077	0.35524403
551.28	0.35575366
551.484	0.35625763
551.687	0.35667162
551.891	0.35714176
552.094	0.35761321
552.297	0.35813913
552.501	0.35870376
552.704	0.35917155
552.907	0.35956784
553.11	0.36000206
553.314	0.36045681
553.517	0.36085584
553.72	0.36130365
553.923	0.3617712
554.127	0.36227538
554.33	0.36271895
554.533	0.36321342
554.736	0.36359081
554.939	0.36410662
555.142	0.36456813
555.345	0.36493456
555.549	0.36532413
555.752	0.36575589
555.955	0.36617736
556.158	0.36673607
556.361	0.36718855
556.564	0.36754929
556.767	0.36802598
556.97	0.36848495
557.173	0.36894937
557.376	0.3694312
557.579	0.36975323
557.782	0.37010411
557.984	0.37052736
558.187	0.37095814
558.39	0.37132821
558.593	0.37176476
558.796	0.37204893
558.999	0.37242929
559.202	0.37286258
559.404	0.37321867
559.607	0.37351434
559.81	0.37396742
560.013	0.37435542
560.216	0.37482772
560.418	0.37522993
560.621	0.37562334
560.824	0.37602645
561.026	0.37648501
561.229	0.37675096
561.432	0.37710206
561.634	0.37745751
561.837	0.37785984
562.04	0.3782084
562.242	0.37861154
562.445	0.37892902
562.647	0.37938177
562.85	0.37971011
563.053	0.38008719
563.255	0.38042819
563.458	0.38087133
563.66	0.38115326
563.863	0.38152203
564.065	0.38181015
