Data from 0_1_mm_pl_100pc_Absorbance__0__18-57-13-153.txt Node

Date: Wed Mar 01 18:57:13 CET 2023
User: Ange
Spectrometer: FLMT08341
Trigger mode: 0
Integration Time (sec): 1.000000E-2
Scans to average: 400
Electric dark correction enabled: true
Nonlinearity correction enabled: false
Boxcar width: 3
XAxis mode: Wavelengths
Number of Pixels in Spectrum: 3648
>>>>>Begin Spectral Data<<<<<
345.271	0.00846701
345.487	0.00669765
345.704	0.00340586
345.921	0.00571877
346.137	0.00084373
346.354	0.00468478
346.571	-0.02425369
346.787	-0.11303153
347.004	0.00571006
347.22	0.01314222
347.437	-0.0626308
347.653	-0.10758705
347.87	-0.01164324
348.086	0.27030568
348.303	-0
348.519	0.03939627
348.736	0.02720645
348.952	0.02287001
349.169	0.02909668
349.385	0.03088434
349.601	0.03139182
349.818	0.02938149
350.034	0.02799086
350.251	0.02842793
350.467	0.02829679
350.683	0.0246863
350.9	0.02278108
351.116	0.02210264
351.332	0.02116897
351.549	0.02325892
351.765	0.02458495
351.981	0.02321573
352.197	0.0234631
352.414	0.02504559
352.63	0.02429442
352.846	0.02486943
353.062	0.02219784
353.278	0.02160869
353.495	0.02223072
353.711	0.02405261
353.927	0.02420451
354.143	0.02432697
354.359	0.02333534
354.575	0.02297097
354.792	0.02271265
355.008	0.02270309
355.224	0.02074363
355.44	0.02106258
355.656	0.02044534
355.872	0.02106975
356.088	0.02279381
356.304	0.02267965
356.52	0.02242493
356.736	0.02285028
356.952	0.02102334
357.168	0.02034749
357.384	0.01882101
357.6	0.01673619
357.816	0.01561037
358.032	0.01491269
358.248	0.01562042
358.464	0.01545563
358.679	0.01506876
358.895	0.01508433
359.111	0.01696984
359.327	0.01580622
359.543	0.01703002
359.759	0.0156756
359.974	0.0151989
360.19	0.01639033
360.406	0.01708537
360.622	0.01570463
360.838	0.01739134
361.053	0.01635413
361.269	0.01734137
361.485	0.01714485
361.701	0.01619583
361.916	0.01575642
362.132	0.01583567
362.348	0.01459496
362.563	0.01531167
362.779	0.01384425
362.995	0.01408448
363.21	0.01464588
363.426	0.0146239
363.641	0.01407461
363.857	0.01405666
364.073	0.01301715
364.288	0.01289784
364.504	0.01235184
364.719	0.01179318
364.935	0.01175503
365.15	0.01243203
365.366	0.01207766
365.581	0.01177578
365.797	0.01181955
366.012	0.01241478
366.228	0.01195854
366.443	0.01121668
366.658	0.0100667
366.874	0.010678
367.089	0.0112692
367.305	0.01188372
367.52	0.01201186
367.735	0.01142038
367.951	0.01153043
368.166	0.01248031
368.381	0.01221178
368.597	0.01148657
368.812	0.01073287
369.027	0.00980219
369.243	0.01059076
369.458	0.01006485
369.673	0.00983578
369.888	0.00977288
370.104	0.00976383
370.319	0.00853893
370.534	0.00859934
370.749	0.00829571
370.964	0.00842548
371.179	0.00793588
371.395	0.00753175
371.61	0.00702908
371.825	0.0076071
372.04	0.00819089
372.255	0.00801595
372.47	0.00801757
372.685	0.00747569
372.9	0.00769168
373.115	0.00792456
373.33	0.00798253
373.545	0.00765761
373.76	0.00730484
373.975	0.00741004
374.19	0.00783207
374.405	0.00773461
374.62	0.00856347
374.835	0.00865166
375.05	0.00833208
375.265	0.00974313
375.48	0.01091083
375.695	0.01106633
375.91	0.01140387
376.125	0.01140379
376.339	0.01107179
376.554	0.01107141
376.769	0.01019043
376.984	0.00944618
377.199	0.00945027
377.414	0.00907132
377.628	0.00897188
377.843	0.00871311
378.058	0.00838735
378.273	0.00743724
378.487	0.0066353
378.702	0.00629555
378.917	0.00620482
379.131	0.00491411
379.346	0.00597303
379.561	0.00604836
379.775	0.00650728
379.99	0.00665991
380.205	0.0071612
380.419	0.00704643
380.634	0.00721366
380.848	0.00650104
381.063	0.00657599
381.278	0.00647543
381.492	0.00613211
381.707	0.00507442
381.921	0.00496835
382.136	0.00521523
382.35	0.00530874
382.565	0.00514062
382.779	0.00544732
382.994	0.0058456
383.208	0.00675904
383.422	0.00595579
383.637	0.00601946
383.851	0.0060436
384.066	0.00649225
384.28	0.00575815
384.494	0.00609802
384.709	0.00583561
384.923	0.00629942
385.137	0.00601311
385.352	0.00599351
385.566	0.0052137
385.78	0.00530522
385.995	0.00477549
386.209	0.00447752
386.423	0.00475399
386.637	0.005147
386.852	0.00431112
387.066	0.00481817
387.28	0.00514416
387.494	0.00562157
387.708	0.00534204
387.923	0.0050954
388.137	0.00450274
388.351	0.00456146
388.565	0.00451356
388.779	0.00417669
388.993	0.00347642
389.207	0.0036013
389.421	0.00357728
389.635	0.00389581
389.85	0.00424291
390.064	0.00391131
390.278	0.00389276
390.492	0.00392602
390.706	0.00379439
390.92	0.00366293
391.134	0.00364451
391.348	0.00367414
391.561	0.0039964
391.775	0.00405316
391.989	0.00418095
392.203	0.00468488
392.417	0.00470245
392.631	0.00426418
392.845	0.00451938
393.059	0.00379299
393.273	0.00402374
393.486	0.00393681
393.7	0.0035152
393.914	0.00360896
394.128	0.00403719
394.342	0.00386767
394.555	0.00417354
394.769	0.00364707
394.983	0.00336968
395.197	0.0034124
395.41	0.00325457
395.624	0.00335815
395.838	0.00309928
396.051	0.00304839
396.265	0.0029955
396.479	0.00354297
396.692	0.00399972
396.906	0.00416
397.12	0.00398271
397.333	0.00406219
397.547	0.00400978
397.76	0.00422602
397.974	0.00380038
398.187	0.00301729
398.401	0.0028829
398.614	0.0025552
398.828	0.00227629
399.041	0.00206216
399.255	0.00221509
399.468	0.0023774
399.682	0.00282649
399.895	0.00296317
400.109	0.00318206
400.322	0.00351845
400.536	0.00363215
400.749	0.00351838
400.962	0.00336094
401.176	0.00330465
401.389	0.00335396
401.602	0.00306117
401.816	0.0030696
402.029	0.00309066
402.242	0.00344037
402.456	0.00340369
402.669	0.00299582
402.882	0.00248567
403.095	0.00231929
403.309	0.00233892
403.522	0.00228371
403.735	0.00187055
403.948	0.00197569
404.161	0.00212929
404.375	0.00254834
404.588	0.00252278
404.801	0.00222164
405.014	0.00212963
405.227	0.00210327
405.44	0.00191181
405.653	0.00172875
405.866	0.00157099
406.079	0.00188378
406.293	0.00205254
406.506	0.00228705
406.719	0.00223539
406.932	0.00221846
407.145	0.00224384
407.358	0.002204
407.571	0.00221567
407.784	0.00216994
407.996	0.00212164
408.209	0.00210933
408.422	0.0022237
408.635	0.00207066
408.848	0.00183503
409.061	0.00139912
409.274	0.00139978
409.487	0.00160493
409.7	0.00166784
409.912	0.00177189
410.125	0.00192316
410.338	0.00216723
410.551	0.00252005
410.764	0.00259496
410.976	0.00223396
411.189	0.00206569
411.402	0.00156615
411.615	0.00174448
411.827	0.001702
412.04	0.00150637
412.253	0.001126
412.465	0.00082498
412.678	0.00077655
412.891	0.00123413
413.103	0.00099617
413.316	0.00115373
413.529	0.00122325
413.741	0.00141803
413.954	0.0015317
414.166	0.00150167
414.379	0.001435
414.591	0.00141508
414.804	0.00116221
415.016	0.00100429
415.229	0.00101977
415.441	0.00115256
415.654	0.00119383
415.866	0.0010746
416.079	0.00129775
416.291	0.00141033
416.504	0.00159925
416.716	0.00153053
416.928	0.00149583
417.141	0.00164514
417.353	0.00155603
417.566	0.00137844
417.778	0.00123246
417.99	0.00126766
418.203	0.00110271
418.415	0.00105443
418.627	0.00097907
418.839	0.00110856
419.052	0.00113384
419.264	0.00107973
419.476	0.00102512
419.688	0.00118067
419.901	0.00122876
420.113	0.00127999
420.325	0.00108811
420.537	0.00093672
420.749	0.00104679
420.961	0.00119647
421.174	0.00103649
421.386	0.00081605
421.598	0.00058878
421.81	0.00066019
422.022	0.00076582
422.234	0.00089153
422.446	0.00056634
422.658	0.00073937
422.87	0.00095784
423.082	0.00094421
423.294	0.00093142
423.506	0.00086844
423.718	0.00073727
423.93	0.00082928
424.142	0.00082953
424.354	0.00078107
424.566	0.00090742
424.778	0.00101415
424.99	0.00094749
425.202	0.00074283
425.414	0.00055879
425.625	0.00047279
425.837	0.00052147
426.049	0.00044497
426.261	0.00039662
426.473	0.00047941
426.684	0.00063969
426.896	0.00088037
427.108	0.00090857
427.32	0.00105092
427.531	0.001005
427.743	0.00099498
427.955	0.00108196
428.167	0.00110348
428.378	0.00089391
428.59	0.00076462
428.802	0.000442
429.013	0.0005167
429.225	0.00048237
429.436	0.00056266
429.648	0.00060386
429.86	0.00075075
430.071	0.00074306
430.283	0.0008676
430.494	0.00089999
430.706	0.00077243
430.917	0.00053245
431.129	0.00043923
431.34	0.00023741
431.552	0.00032002
431.763	0.00047126
431.975	0.00047216
432.186	0.00056364
432.398	0.0006676
432.609	0.00072867
432.821	0.00104793
433.032	0.00095472
433.243	0.00071832
433.455	0.00074848
433.666	0.00069883
433.877	0.00076886
434.089	0.00071795
434.3	0.00057248
434.511	0.00058974
434.723	0.00058587
434.934	0.00044451
435.145	0.00041456
435.356	0.0001755
435.568	0.00015727
435.779	0.00015174
435.99	0.00011034
436.201	0.00014158
436.412	0.00018697
436.624	0.00036038
436.835	0.00049344
437.046	0.00052086
437.257	0.00047991
437.468	0.00056235
437.679	0.00072578
437.89	0.00065632
438.101	0.00052755
438.312	0.00034495
438.523	0.00030254
438.734	0.00035197
438.945	0.00026616
439.156	0.00010521
439.367	0.00006848
439.578	0.00001995
439.789	0.00007614
440	0.00008487
440.211	-0.00000318
440.422	0.00010255
440.633	0.00007124
440.844	0.00017254
441.055	0.00027212
441.266	0.00031834
441.477	0.0004114
441.687	0.00049432
441.898	0.00059687
442.109	0.00066329
442.32	0.00056507
442.531	0.00062625
442.741	0.00064413
442.952	0.00037772
443.163	0.00035848
443.374	0.00027113
443.584	0.00027407
443.795	0.00029173
444.006	0.00013269
444.216	0.00003086
444.427	0.00016994
444.638	0.00011774
444.848	0.00011684
445.059	0.00011746
445.27	0.00004168
445.48	0.00001063
445.691	0.00018201
445.901	0.00036165
446.112	0.0003951
446.323	0.00045798
446.533	0.00045308
446.744	0.00071645
446.954	0.00071036
447.165	0.00059355
447.375	0.00040841
447.586	0.00036187
447.796	0.00026537
448.006	0.00031594
448.217	0.0002157
448.427	0.00024553
448.638	0.00023512
448.848	0.00028114
449.058	0.0003787
449.269	0.00039758
449.479	0.00022937
449.689	0.00019458
449.9	0.00019597
450.11	0.0003179
450.32	0.0004414
450.531	0.00033248
450.741	0.00029922
450.951	0.00037822
451.161	0.00038331
451.372	0.00035423
451.582	0.00025045
451.792	0.00008081
452.002	0.00018821
452.212	0.00020606
452.422	0.0000592
452.633	0.00000946
452.843	0.00009032
453.053	0.00017154
453.263	0.00014046
453.473	0.00013162
453.683	0.00012766
453.893	0.00025145
454.103	0.00016285
454.313	0.00018954
454.523	0.00018638
454.733	0.00024568
454.943	0.00021105
455.153	0.00019523
455.363	0.00020203
455.573	0.0002711
455.783	0.00022649
455.993	0.00033274
456.203	0.00024519
456.413	0.00019721
456.623	0.00024191
456.833	0.00031871
457.042	0.00038122
457.252	0.00035033
457.462	0.00037999
457.672	0.00042934
457.882	0.00038438
458.091	0.00036474
458.301	0.00028799
458.511	0.00023952
458.721	0.00039314
458.931	0.00016961
459.14	0.00011651
459.35	0.00022891
459.56	0.00014439
459.769	0.00007908
459.979	0.0001944
460.189	0.00006763
460.398	0.00022109
460.608	0.00025895
460.817	0.00027631
461.027	0.00034972
461.237	0.00043677
461.446	0.00043279
461.656	0.00047381
461.865	0.00035054
462.075	0.00040428
462.284	0.00040696
462.494	0.00037567
462.703	0.00043566
462.913	0.00039532
463.122	0.00035212
463.332	0.00037799
463.541	0.00041205
463.751	0.00037943
463.96	0.0003925
464.169	0.00036893
464.379	0.00040963
464.588	0.00044186
464.797	0.00048984
465.007	0.0005145
465.216	0.00044481
465.425	0.00046503
465.635	0.00049099
465.844	0.00045926
466.053	0.00045019
466.263	0.00041259
466.472	0.00030512
466.681	0.00027554
466.89	0.00033959
467.099	0.00030689
467.309	0.00023279
467.518	0.00023581
467.727	0.00022059
467.936	0.00022316
468.145	0.00020597
468.354	0.00010306
468.563	0.00010844
468.772	0.00023213
468.982	0.00029601
469.191	0.00036285
469.4	0.00043595
469.609	0.00056351
469.818	0.00060916
470.027	0.00066602
470.236	0.00060235
470.445	0.00057787
470.654	0.00052163
470.863	0.0005604
471.072	0.00057871
471.28	0.0005958
471.489	0.00048282
471.698	0.00046477
471.907	0.00047015
472.116	0.00049848
472.325	0.00042416
472.534	0.00045925
472.743	0.00052311
472.951	0.00065123
473.16	0.00061096
473.369	0.00056629
473.578	0.00059373
473.786	0.00060028
473.995	0.00049208
474.204	0.00039939
474.413	0.00037294
474.621	0.00048091
474.83	0.00054811
475.039	0.00051798
475.247	0.00060989
475.456	0.00073102
475.665	0.00074565
475.873	0.00074834
476.082	0.0007646
476.291	0.00071489
476.499	0.0007042
476.708	0.00059632
476.916	0.00061243
477.125	0.0006267
477.333	0.00059179
477.542	0.00054235
477.75	0.00051684
477.959	0.0006104
478.167	0.00069428
478.376	0.00063322
478.584	0.00069785
478.793	0.00069534
479.001	0.00071764
479.209	0.00082021
479.418	0.0008254
479.626	0.00078045
479.834	0.00082171
480.043	0.00076656
480.251	0.00086834
480.459	0.00092287
480.668	0.00081744
480.876	0.00082128
481.084	0.00089643
481.293	0.00092394
481.501	0.00103092
481.709	0.00099561
481.917	0.00098492
482.125	0.00106782
482.334	0.00101442
482.542	0.00106622
482.75	0.0010531
482.958	0.00099408
483.166	0.00106036
483.374	0.0010893
483.583	0.0010978
483.791	0.00113167
483.999	0.00111427
484.207	0.00108835
484.415	0.00106997
484.623	0.00101872
484.831	0.00097355
485.039	0.00102091
485.247	0.0010808
485.455	0.00108593
485.663	0.00113393
485.871	0.00118331
486.079	0.00121414
486.287	0.00123418
486.495	0.00129142
486.702	0.00129427
486.91	0.00130439
487.118	0.00130541
487.326	0.0013562
487.534	0.00136035
487.742	0.00141482
487.95	0.00136578
488.157	0.0013223
488.365	0.00130487
488.573	0.00132874
488.781	0.00133366
488.988	0.00136724
489.196	0.0013474
489.404	0.00140155
489.612	0.00144795
489.819	0.00143945
490.027	0.00154546
490.235	0.00153948
490.442	0.00156668
490.65	0.00164834
490.857	0.00165274
491.065	0.00171345
491.273	0.00173752
491.48	0.00169728
491.688	0.00172456
491.895	0.00171493
492.103	0.00173394
492.31	0.00176848
492.518	0.00179203
492.725	0.00183356
492.933	0.00187149
493.14	0.00189335
493.348	0.00198119
493.555	0.00192656
493.763	0.00191918
493.97	0.00192519
494.177	0.00195232
494.385	0.0018712
494.592	0.00191335
494.8	0.00184146
495.007	0.00189781
495.214	0.00188643
495.422	0.001878
495.629	0.00194181
495.836	0.00205064
496.043	0.00204439
496.251	0.0020721
496.458	0.0020587
496.665	0.0021205
496.872	0.00214461
497.08	0.00215943
497.287	0.00217047
497.494	0.00219842
497.701	0.0022528
497.908	0.00225557
498.115	0.00225607
498.322	0.00231719
498.53	0.00234092
498.737	0.00231342
498.944	0.00234907
499.151	0.00238027
499.358	0.00244955
499.565	0.00247259
499.772	0.00248502
499.979	0.00243918
500.186	0.00251385
500.393	0.00252049
500.6	0.00255152
500.807	0.00257875
501.014	0.00258915
501.221	0.00260514
501.427	0.00271811
501.634	0.00275047
501.841	0.00276709
502.048	0.00274318
502.255	0.00277566
502.462	0.00278791
502.669	0.00284205
502.875	0.00283172
503.082	0.00285825
503.289	0.00292106
503.496	0.00299169
503.702	0.00297849
503.909	0.00299333
504.116	0.00296817
504.323	0.00295936
504.529	0.00295638
504.736	0.0029143
504.943	0.002955
505.149	0.00308448
505.356	0.00316899
505.563	0.00318115
505.769	0.00324159
505.976	0.00327881
506.182	0.00337733
506.389	0.00335288
506.595	0.00331284
506.802	0.00330796
507.008	0.00341037
507.215	0.00339947
507.421	0.0034799
507.628	0.00347577
507.834	0.00350024
508.041	0.0035237
508.247	0.00354279
508.454	0.00354027
508.66	0.00359109
508.866	0.00357145
509.073	0.00359856
509.279	0.00370763
509.486	0.00373999
509.692	0.00381109
509.898	0.00383008
510.105	0.00384713
510.311	0.00390679
510.517	0.00395914
510.723	0.00397042
510.93	0.00404003
511.136	0.00404527
511.342	0.0041178
511.548	0.00420668
511.754	0.00423396
511.961	0.00426913
512.167	0.00430076
512.373	0.00432364
512.579	0.00435993
512.785	0.00437546
512.991	0.00438168
513.197	0.00442596
513.404	0.0045088
513.61	0.00453263
513.816	0.00455996
514.022	0.00465943
514.228	0.00470585
514.434	0.00475016
514.64	0.00482705
514.846	0.00481619
515.052	0.00484491
515.258	0.00489132
515.464	0.00488286
515.669	0.00488661
515.875	0.00491678
516.081	0.00490847
516.287	0.00495106
516.493	0.00500781
516.699	0.00504435
516.905	0.00512148
517.111	0.00519058
517.316	0.00529608
517.522	0.00538137
517.728	0.00550499
517.934	0.00556117
518.139	0.00564894
518.345	0.00565986
518.551	0.00571578
518.757	0.00573433
518.962	0.00573464
519.168	0.00572446
519.374	0.00576491
519.579	0.00574316
519.785	0.00581168
519.991	0.00589323
520.196	0.00593947
520.402	0.00602245
520.607	0.00604643
520.813	0.00608645
521.018	0.00617122
521.224	0.00624783
521.429	0.00625301
521.635	0.00629712
521.84	0.00631254
522.046	0.00636396
522.251	0.00646153
522.457	0.00656425
522.662	0.00661757
522.868	0.00666977
523.073	0.00674385
523.279	0.00682081
523.484	0.00692624
523.689	0.00694845
523.895	0.00699697
524.1	0.00704409
524.305	0.00709625
524.511	0.00711163
524.716	0.0071238
524.921	0.00713342
525.126	0.00718932
525.332	0.00718433
525.537	0.00726053
525.742	0.00731075
525.947	0.00738641
526.153	0.00750682
526.358	0.00755168
526.563	0.00759783
526.768	0.00768906
526.973	0.00774825
527.178	0.00782086
527.383	0.00787565
527.588	0.00787125
527.794	0.00793966
527.999	0.00797384
528.204	0.00809497
528.409	0.00816205
528.614	0.00822125
528.819	0.00832412
529.024	0.00842283
529.229	0.00849849
529.434	0.00860271
529.639	0.00863821
529.843	0.00863297
530.048	0.00871658
530.253	0.00876791
530.458	0.00882544
530.663	0.00891333
530.868	0.00900041
531.073	0.00901299
531.278	0.0091196
531.482	0.00918162
531.687	0.00925453
531.892	0.00932723
532.097	0.00937179
532.302	0.00942947
532.506	0.00955032
532.711	0.00962051
532.916	0.00969689
533.12	0.00976648
533.325	0.00984615
533.53	0.0099255
533.734	0.00999051
533.939	0.01008827
534.144	0.01014645
534.348	0.01022773
534.553	0.01028406
534.757	0.01036293
534.962	0.01044827
535.167	0.01048605
535.371	0.01049868
535.576	0.01059748
535.78	0.01069631
535.985	0.0108061
536.189	0.01088105
536.394	0.01094486
536.598	0.01105502
536.803	0.01113628
537.007	0.01119053
537.211	0.01122789
537.416	0.0112938
537.62	0.01134353
537.825	0.01144538
538.029	0.01149189
538.233	0.01159119
538.438	0.01166376
538.642	0.01176989
538.846	0.01180766
539.05	0.01189053
539.255	0.01193046
539.459	0.01204175
539.663	0.01210809
539.867	0.01222204
540.072	0.01230342
540.276	0.01241329
540.48	0.01249715
540.684	0.01261301
540.888	0.01275133
541.092	0.01283129
541.297	0.01291601
541.501	0.01296805
541.705	0.0130557
541.909	0.01321541
542.113	0.01334278
542.317	0.01343185
542.521	0.01355231
542.725	0.01365695
542.929	0.01379304
543.133	0.01394259
543.337	0.01401773
543.541	0.01407383
543.745	0.01414074
543.949	0.01427449
544.153	0.0143678
544.357	0.01450058
544.56	0.01452804
544.764	0.01458329
544.968	0.01471662
545.172	0.01481566
545.376	0.01493094
545.58	0.0150405
545.783	0.01514914
545.987	0.01530246
546.191	0.01544537
546.395	0.01553735
546.598	0.01562994
546.802	0.01569357
547.006	0.01578605
547.21	0.01584523
547.413	0.01598263
547.617	0.01613624
547.821	0.01626189
548.024	0.01645203
548.228	0.01652463
548.431	0.01665808
548.635	0.01680025
548.839	0.01688817
549.042	0.01697831
549.246	0.01707312
549.449	0.0171539
549.653	0.01731752
549.856	0.01743167
550.06	0.01756521
550.263	0.01769401
550.467	0.01777701
550.67	0.01789836
550.874	0.01801118
551.077	0.01812842
551.28	0.01826624
551.484	0.01834386
551.687	0.01843044
551.891	0.0186022
552.094	0.01874043
552.297	0.01886607
552.501	0.01899788
552.704	0.01907686
552.907	0.01919089
553.11	0.01932975
553.314	0.0194536
553.517	0.01955857
553.72	0.01961628
553.923	0.01975316
554.127	0.01987869
554.33	0.02001355
554.533	0.02012049
554.736	0.02022468
554.939	0.02039161
555.142	0.0205917
555.345	0.02069877
555.549	0.0208547
555.752	0.02101221
555.955	0.02113013
556.158	0.02126606
556.361	0.02134794
556.564	0.02149906
556.767	0.02164031
556.97	0.02175221
557.173	0.02186244
557.376	0.02203766
557.579	0.02217139
557.782	0.02232837
557.984	0.02244729
558.187	0.02257608
558.39	0.02275646
558.593	0.02286989
558.796	0.02301604
558.999	0.02318654
559.202	0.02334174
559.404	0.02343866
559.607	0.0235554
559.81	0.02372062
560.013	0.02393687
560.216	0.02404603
560.418	0.02416701
560.621	0.02430746
560.824	0.02447969
561.026	0.02467036
561.229	0.0247611
561.432	0.02489431
561.634	0.02508903
561.837	0.0252365
562.04	0.02541964
562.242	0.02556324
562.445	0.02572275
562.647	0.02589651
562.85	0.02600133
563.053	0.02617287
563.255	0.02634975
563.458	0.02648013
563.66	0.02666475
563.863	0.02682898
