Data from 0_1_mm_pl_0pc_Absorbance__0__18-49-07-890.txt Node

Date: Wed Mar 01 18:49:07 CET 2023
User: Ange
Spectrometer: FLMT08341
Trigger mode: 0
Integration Time (sec): 1.000000E-2
Scans to average: 400
Electric dark correction enabled: true
Nonlinearity correction enabled: false
Boxcar width: 3
XAxis mode: Wavelengths
Number of Pixels in Spectrum: 3648
>>>>>Begin Spectral Data<<<<<
345.271	-0.02059132
345.487	-0.0170603
345.704	-0.02641636
345.921	-0.02594579
346.137	-0.03718854
346.354	-0.04142247
346.571	-0.04536275
346.787	-0.14438503
347.004	0.05170295
347.22	-0.00671713
347.437	0.02295308
347.653	-0.05852415
347.87	0.21227445
348.086	0.16564894
348.303	-0
348.519	0.02994272
348.736	0.03105972
348.952	0.0282788
349.169	0.03073159
349.385	0.03335075
349.601	0.03235519
349.818	0.03182319
350.034	0.03470131
350.251	0.03557203
350.467	0.03793395
350.683	0.03483299
350.9	0.03203671
351.116	0.03191887
351.332	0.03316172
351.549	0.03342505
351.765	0.03429568
351.981	0.0337925
352.197	0.03672756
352.414	0.03991972
352.63	0.04126918
352.846	0.04093271
353.062	0.03859754
353.278	0.03837813
353.495	0.03964843
353.711	0.04052148
353.927	0.03958674
354.143	0.03962183
354.359	0.03914375
354.575	0.04148411
354.792	0.04238769
355.008	0.0434098
355.224	0.04356985
355.44	0.04408355
355.656	0.04453196
355.872	0.04506468
356.088	0.04495982
356.304	0.04477552
356.52	0.04439412
356.736	0.0439737
356.952	0.04470819
357.168	0.04472357
357.384	0.04588968
357.6	0.04590848
357.816	0.04739288
358.032	0.04822478
358.248	0.05034376
358.464	0.05001653
358.679	0.05170508
358.895	0.05101674
359.111	0.05299636
359.327	0.052397
359.543	0.05319148
359.759	0.05274386
359.974	0.05410812
360.19	0.05356587
360.406	0.05470419
360.622	0.05492138
360.838	0.05426938
361.053	0.05440398
361.269	0.05525002
361.485	0.05459402
361.701	0.05600306
361.916	0.05668345
362.132	0.0562085
362.348	0.05663703
362.563	0.05670101
362.779	0.05627327
362.995	0.05761428
363.21	0.05808453
363.426	0.05678217
363.641	0.05767445
363.857	0.05804619
364.073	0.05887248
364.288	0.05859369
364.504	0.05926282
364.719	0.05875527
364.935	0.06023669
365.15	0.06049522
365.366	0.06074845
365.581	0.06021514
365.797	0.06202004
366.012	0.0614607
366.228	0.06155077
366.443	0.0628128
366.658	0.06314573
366.874	0.06333165
367.089	0.06451253
367.305	0.0651731
367.52	0.06529971
367.735	0.06601914
367.951	0.06504127
368.166	0.06581263
368.381	0.06768221
368.597	0.06741393
368.812	0.06849235
369.027	0.06890946
369.243	0.06945403
369.458	0.07070007
369.673	0.07074835
369.888	0.07010457
370.104	0.07077535
370.319	0.06971719
370.534	0.07010307
370.749	0.07017366
370.964	0.07016433
371.179	0.06918269
371.395	0.06988403
371.61	0.06970453
371.825	0.06936682
372.04	0.07015567
372.255	0.06975282
372.47	0.06959054
372.685	0.0702776
372.9	0.06965534
373.115	0.07011218
373.33	0.07039253
373.545	0.07113882
373.76	0.0725103
373.975	0.0728613
374.19	0.07325727
374.405	0.07348952
374.62	0.0734832
374.835	0.07460398
375.05	0.07436671
375.265	0.07489152
375.48	0.0751846
375.695	0.07666526
375.91	0.07698784
376.125	0.07702121
376.339	0.07668111
376.554	0.07672397
376.769	0.07651859
376.984	0.0769914
377.199	0.07665317
377.414	0.07744225
377.628	0.07844785
377.843	0.07898862
378.058	0.07862032
378.273	0.07931166
378.487	0.07897785
378.702	0.07971177
378.917	0.07949404
379.131	0.07965588
379.346	0.07911012
379.561	0.0799553
379.775	0.07911025
379.99	0.0798318
380.205	0.07985783
380.419	0.08003956
380.634	0.07954348
380.848	0.08052576
381.063	0.08038275
381.278	0.08231599
381.492	0.08275
381.707	0.08322624
381.921	0.08309681
382.136	0.08456649
382.35	0.08462516
382.565	0.08527383
382.779	0.08476332
382.994	0.08560476
383.208	0.08548375
383.422	0.0866967
383.637	0.08634821
383.851	0.08693979
384.066	0.0878525
384.28	0.08859742
384.494	0.08885325
384.709	0.08925107
384.923	0.08996117
385.137	0.09035259
385.352	0.09100259
385.566	0.09111272
385.78	0.09062858
385.995	0.0901233
386.209	0.0901095
386.423	0.09027873
386.637	0.09047526
386.852	0.08980702
387.066	0.09009077
387.28	0.09017675
387.494	0.09075235
387.708	0.09070057
387.923	0.09039308
388.137	0.09048763
388.351	0.09108053
388.565	0.09143533
388.779	0.09212488
388.993	0.09324217
389.207	0.09375817
389.421	0.09411522
389.635	0.09448837
389.85	0.09504628
390.064	0.09464321
390.278	0.09462483
390.492	0.09448951
390.706	0.0950943
390.92	0.09514319
391.134	0.0955641
391.348	0.09636092
391.561	0.09603117
391.775	0.09644582
391.989	0.09622431
392.203	0.09618686
392.417	0.09661467
392.631	0.09674037
392.845	0.09628749
393.059	0.09752227
393.273	0.09736374
393.486	0.09727231
393.7	0.09724539
393.914	0.09778588
394.128	0.09778836
394.342	0.09763373
394.555	0.09764762
394.769	0.09765463
394.983	0.09829269
395.197	0.09884678
395.41	0.09908316
395.624	0.09958574
395.838	0.1000623
396.051	0.10027117
396.265	0.10071765
396.479	0.10104501
396.692	0.10126118
396.906	0.10116423
397.12	0.10141285
397.333	0.10158771
397.547	0.10185666
397.76	0.10224435
397.974	0.10190462
398.187	0.1021891
398.401	0.10243181
398.614	0.10274232
398.828	0.10316671
399.041	0.10302811
399.255	0.1031589
399.468	0.10338337
399.682	0.1032662
399.895	0.10345863
400.109	0.10340416
400.322	0.10309084
400.536	0.10300403
400.749	0.10350127
400.962	0.10384424
401.176	0.1037186
401.389	0.10390015
401.602	0.10353734
401.816	0.10354583
402.029	0.10365284
402.242	0.10353779
402.456	0.10382019
402.669	0.10391159
402.882	0.10352312
403.095	0.10376373
403.309	0.10400853
403.522	0.10447893
403.735	0.10411839
403.948	0.10368363
404.161	0.10433022
404.375	0.10451173
404.588	0.10508235
404.801	0.10537151
405.014	0.10509125
405.227	0.10560988
405.44	0.10580797
405.653	0.10538026
405.866	0.10569187
406.079	0.1053355
406.293	0.10525314
406.506	0.10547088
406.719	0.1052527
406.932	0.10519328
407.145	0.10518866
407.358	0.10545847
407.571	0.10568836
407.784	0.10593738
407.996	0.10596474
408.209	0.10565735
408.422	0.10549063
408.635	0.1054344
408.848	0.10544934
409.061	0.10484188
409.274	0.10436329
409.487	0.10416027
409.7	0.10443259
409.912	0.10464139
410.125	0.10487982
410.338	0.10450538
410.551	0.10479263
410.764	0.10496505
410.976	0.10490143
411.189	0.10469347
411.402	0.10448149
411.615	0.10432198
411.827	0.10395957
412.04	0.10392579
412.253	0.10383854
412.465	0.10388394
412.678	0.10387645
412.891	0.10399141
413.103	0.10374206
413.316	0.10379381
413.529	0.10379051
413.741	0.10377743
413.954	0.10366201
414.166	0.10356442
414.379	0.10336977
414.591	0.10322841
414.804	0.10290055
415.016	0.10250774
415.229	0.10206321
415.441	0.10180645
415.654	0.10169771
415.866	0.10131458
416.079	0.1013606
416.291	0.10138039
416.504	0.10148871
416.716	0.10157137
416.928	0.10125659
417.141	0.10091625
417.353	0.10088533
417.566	0.10034607
417.778	0.10021399
417.99	0.09975804
418.203	0.09918952
418.415	0.09914601
418.627	0.09927842
418.839	0.09914487
419.052	0.09928619
419.264	0.09919859
419.476	0.09911216
419.688	0.09904076
419.901	0.09885135
420.113	0.09833797
420.325	0.09806157
420.537	0.09774566
420.749	0.09735945
420.961	0.09727674
421.174	0.09714161
421.386	0.09697233
421.598	0.09670521
421.81	0.09652375
422.022	0.09625671
422.234	0.09614932
422.446	0.09582865
422.658	0.09545652
422.87	0.09522872
423.082	0.09509567
423.294	0.09491685
423.506	0.0947184
423.718	0.09446998
423.93	0.09404401
424.142	0.09369855
424.354	0.09321422
424.566	0.09279746
424.778	0.09256284
424.99	0.09222055
425.202	0.09209771
425.414	0.09175187
425.625	0.09166963
425.837	0.09127514
426.049	0.0909863
426.261	0.09050107
426.473	0.09028844
426.684	0.08957001
426.896	0.08949879
427.108	0.08910097
427.32	0.08897183
427.531	0.08885812
427.743	0.08867801
427.955	0.08825034
428.167	0.08794499
428.378	0.08759702
428.59	0.08726823
428.802	0.0869335
429.013	0.08635281
429.225	0.08577166
429.436	0.08544889
429.648	0.08513202
429.86	0.08482084
430.071	0.08445603
430.283	0.08416671
430.494	0.08371867
430.706	0.08349521
430.917	0.08333867
431.129	0.08303098
431.34	0.08260147
431.552	0.08229676
431.763	0.08198468
431.975	0.08186248
432.186	0.0815331
432.398	0.08101002
432.609	0.08045148
432.821	0.07996261
433.032	0.07966247
433.243	0.07932596
433.455	0.07924259
433.666	0.07885467
433.877	0.07853683
434.089	0.07839533
434.3	0.07826069
434.511	0.07790118
434.723	0.0775823
434.934	0.07722171
435.145	0.07684437
435.356	0.07656784
435.568	0.07624777
435.779	0.07588952
435.99	0.07562059
436.201	0.07537825
436.412	0.07497209
436.624	0.07474224
436.835	0.07446038
437.046	0.0741711
437.257	0.07373619
437.468	0.07333601
437.679	0.07285636
437.89	0.07239818
438.101	0.07203747
438.312	0.07167659
438.523	0.07125409
438.734	0.07103063
438.945	0.07065754
439.156	0.07020085
439.367	0.0698362
439.578	0.06940987
439.789	0.06888076
440	0.06830749
440.211	0.06772816
440.422	0.06725423
440.633	0.06669318
440.844	0.06618168
441.055	0.06573412
441.266	0.06515449
441.477	0.06491367
441.687	0.06452233
441.898	0.06407829
442.109	0.06369292
442.32	0.06321812
442.531	0.06269241
442.741	0.06222911
442.952	0.06184368
443.163	0.06149989
443.374	0.06109117
443.584	0.06064641
443.795	0.06032588
444.006	0.05993018
444.216	0.05952779
444.427	0.05900854
444.638	0.05840936
444.848	0.0579375
445.059	0.05756349
445.27	0.05703884
445.48	0.05658547
445.691	0.05616673
445.901	0.05597666
446.112	0.05567057
446.323	0.05527966
446.533	0.05481426
446.744	0.05446208
446.954	0.05409705
447.165	0.05375393
447.375	0.05304607
447.586	0.05263191
447.796	0.05214824
448.006	0.05181359
448.217	0.0513839
448.427	0.05105276
448.638	0.05082335
448.848	0.05038003
449.058	0.04992046
449.269	0.04959538
449.479	0.04915488
449.689	0.04875688
449.9	0.04843049
450.11	0.04808049
450.32	0.04797069
450.531	0.04757731
450.741	0.04727038
450.951	0.04701815
451.161	0.04668169
451.372	0.04623484
451.582	0.04587013
451.792	0.04541703
452.002	0.04528838
452.212	0.0448677
452.422	0.04451646
452.633	0.04416975
452.843	0.0438163
453.053	0.04318645
453.263	0.04284035
453.473	0.04228953
453.683	0.04189521
453.893	0.04143175
454.103	0.04102725
454.313	0.04066541
454.523	0.04050731
454.733	0.0401425
454.943	0.03988265
455.153	0.03969132
455.363	0.03948894
455.573	0.03909152
455.783	0.03890856
455.993	0.03849405
456.203	0.0382609
456.413	0.03792298
456.623	0.03749003
456.833	0.03704474
457.042	0.03682627
457.252	0.03631329
457.462	0.03592396
457.672	0.03548081
457.882	0.03517543
458.091	0.03492815
458.301	0.03474889
458.511	0.03442207
458.721	0.03425229
458.931	0.03416785
459.14	0.03404554
459.35	0.03383073
459.56	0.03348741
459.769	0.03321225
459.979	0.03294834
460.189	0.03260374
460.398	0.03224254
460.608	0.03192454
460.817	0.0316451
461.027	0.03147822
461.237	0.03119511
461.446	0.03099491
461.656	0.03073843
461.865	0.03039979
462.075	0.03020125
462.284	0.02984228
462.494	0.02956147
462.703	0.02932936
462.913	0.02902453
463.122	0.02873647
463.332	0.0286214
463.541	0.02819136
463.751	0.02798547
463.96	0.02773179
464.169	0.02743755
464.379	0.02718946
464.588	0.0270043
464.797	0.02670397
465.007	0.02654105
465.216	0.02638481
465.425	0.02614723
465.635	0.02590224
465.844	0.02589098
466.053	0.02574734
466.263	0.02563322
466.472	0.02543492
466.681	0.02519418
466.89	0.02502122
467.099	0.02492124
467.309	0.02462576
467.518	0.02437728
467.727	0.02404529
467.936	0.0239109
468.145	0.0236579
468.354	0.02349937
468.563	0.02328419
468.772	0.02301789
468.982	0.02284003
469.191	0.02274855
469.4	0.02251495
469.609	0.02243426
469.818	0.0221905
470.027	0.02197737
470.236	0.02189872
470.445	0.02179753
470.654	0.02159603
470.863	0.02134001
471.072	0.02116151
471.28	0.02096276
471.489	0.02084852
471.698	0.02059096
471.907	0.02041664
472.116	0.02029379
472.325	0.02018424
472.534	0.0200255
472.743	0.0198884
472.951	0.01974866
473.16	0.0196409
473.369	0.01940133
473.578	0.01928406
473.786	0.01931945
473.995	0.01921794
474.204	0.01909704
474.413	0.01902193
474.621	0.01890661
474.83	0.01882196
475.039	0.01872734
475.247	0.0185028
475.456	0.01838457
475.665	0.01828541
475.873	0.01809701
476.082	0.01800801
476.291	0.01805794
476.499	0.01787592
476.708	0.01783101
476.916	0.01777173
477.125	0.01774258
477.333	0.0177132
477.542	0.01758099
477.75	0.01747198
477.959	0.01737894
478.167	0.01730071
478.376	0.01713058
478.584	0.01704533
478.793	0.01695129
479.001	0.01691689
479.209	0.01664519
479.418	0.01657542
479.626	0.01645923
479.834	0.01636841
480.043	0.01629876
480.251	0.01618837
480.459	0.016099
480.668	0.01616339
480.876	0.01612412
481.084	0.01606084
481.293	0.01601543
481.501	0.01593255
481.709	0.01583852
481.917	0.01580989
482.125	0.01574004
482.334	0.01571086
482.542	0.01565679
482.75	0.01564566
482.958	0.01562238
483.166	0.01561808
483.374	0.01559429
483.583	0.01551479
483.791	0.01539264
483.999	0.01535148
484.207	0.01534222
484.415	0.01522426
484.623	0.01515053
484.831	0.01508006
485.039	0.0150753
485.247	0.01507921
485.455	0.01501313
485.663	0.01492783
485.871	0.01494165
486.079	0.01491378
486.287	0.01484553
486.495	0.01483003
486.702	0.01481776
486.91	0.01480628
487.118	0.0147995
487.326	0.01477484
487.534	0.01477729
487.742	0.0147251
487.95	0.01461838
488.157	0.01460129
488.365	0.01465396
488.573	0.01459653
488.781	0.01457698
488.988	0.01458517
489.196	0.0146181
489.404	0.01466759
489.612	0.01464209
489.819	0.01460983
490.027	0.01470693
490.235	0.01476238
490.442	0.01478735
490.65	0.01477711
490.857	0.01472602
491.065	0.01469651
491.273	0.01466343
491.48	0.01455939
491.688	0.01450741
491.895	0.0144694
492.103	0.01442087
492.31	0.0144613
492.518	0.01447591
492.725	0.01442336
492.933	0.01442362
493.14	0.0144701
493.348	0.01445593
493.555	0.01448068
493.763	0.01452416
493.97	0.01451184
494.177	0.01454385
494.385	0.01458444
494.592	0.01457291
494.8	0.01456307
495.007	0.0145551
495.214	0.01454065
495.422	0.01458265
495.629	0.0146622
495.836	0.01467544
496.043	0.01469354
496.251	0.01468669
496.458	0.01478624
496.665	0.01480632
496.872	0.0148706
497.08	0.01490513
497.287	0.01493894
497.494	0.01493374
497.701	0.01497443
497.908	0.01494122
498.115	0.01497015
498.322	0.01497657
498.53	0.0149425
498.737	0.01502626
498.944	0.01506375
499.151	0.01513833
499.358	0.01520108
499.565	0.01523565
499.772	0.01526586
499.979	0.01535259
500.186	0.0153035
500.393	0.01529468
500.6	0.01538938
500.807	0.01546971
501.014	0.01554642
501.221	0.01561007
501.427	0.01561506
501.634	0.01569486
501.841	0.01583263
502.048	0.0157922
502.255	0.01579113
502.462	0.01581691
502.669	0.01580683
502.875	0.01590508
503.082	0.01596339
503.289	0.01601268
503.496	0.01612445
503.702	0.016237
503.909	0.01628182
504.116	0.01634191
504.323	0.0163073
504.529	0.01639045
504.736	0.01634029
504.943	0.01635089
505.149	0.01637416
505.356	0.01641867
505.563	0.01650246
505.769	0.01658629
505.976	0.016587
506.182	0.01669579
506.389	0.01679756
506.595	0.01681492
506.802	0.01687248
507.008	0.01693083
507.215	0.01695271
507.421	0.01701791
507.628	0.01707898
507.834	0.01709128
508.041	0.0172066
508.247	0.01726774
508.454	0.01728174
508.66	0.01738313
508.866	0.0174268
509.073	0.01750909
509.279	0.01758284
509.486	0.01757626
509.692	0.01763859
509.898	0.01777587
510.105	0.01784062
510.311	0.01796998
510.517	0.01806125
510.723	0.01816936
510.93	0.01831634
511.136	0.01841762
511.342	0.01844056
511.548	0.01854806
511.754	0.01855339
511.961	0.01861018
512.167	0.01868351
512.373	0.01873211
512.579	0.01882815
512.785	0.01896922
512.991	0.01904333
513.197	0.01917082
513.404	0.01929436
513.61	0.01934916
513.816	0.01945378
514.022	0.01945764
514.228	0.01951945
514.434	0.01961058
514.64	0.0196543
514.846	0.01971047
515.052	0.01975005
515.258	0.01979948
515.464	0.01995151
515.669	0.02004873
515.875	0.02014646
516.081	0.0203024
516.287	0.0203782
516.493	0.0205319
516.699	0.02061548
516.905	0.020701
517.111	0.02080548
517.316	0.02084221
517.522	0.02086757
517.728	0.02099145
517.934	0.02104269
518.139	0.02118018
518.345	0.02123557
518.551	0.02130694
518.757	0.02138727
518.962	0.02154644
519.168	0.02158989
519.374	0.02167481
519.579	0.02178054
519.785	0.02193345
519.991	0.02200897
520.196	0.02215703
520.402	0.02221397
520.607	0.02229399
520.813	0.02241587
521.018	0.02247759
521.224	0.0224842
521.429	0.0226138
521.635	0.02268794
521.84	0.02277362
522.046	0.02290861
522.251	0.02304998
522.457	0.02316328
522.662	0.02331785
522.868	0.02340402
523.073	0.02350138
523.279	0.02363345
523.484	0.02373835
523.689	0.02381872
523.895	0.02391092
524.1	0.02400156
524.305	0.02412408
524.511	0.02423259
524.716	0.02435406
524.921	0.02449478
525.126	0.02457922
525.332	0.02468212
525.537	0.0247984
525.742	0.024844
525.947	0.02497638
526.153	0.02503004
526.358	0.02507947
526.563	0.02519093
526.768	0.0252893
526.973	0.0253592
527.178	0.02551809
527.383	0.02561707
527.588	0.02574827
527.794	0.02588913
527.999	0.02602172
528.204	0.0261799
528.409	0.02630414
528.614	0.02641118
528.819	0.02649003
529.024	0.02661138
529.229	0.02668617
529.434	0.02678667
529.639	0.02684163
529.843	0.02698636
530.048	0.02709132
530.253	0.02727931
530.458	0.02741905
530.663	0.02761634
530.868	0.02773244
531.073	0.02787245
531.278	0.0279813
531.482	0.02807759
531.687	0.02818027
531.892	0.02827829
532.097	0.02837987
532.302	0.02854124
532.506	0.0287135
532.711	0.02887098
532.916	0.02903506
533.12	0.02915592
533.325	0.0292747
533.53	0.02937568
533.734	0.02950973
533.939	0.02961884
534.144	0.02975664
534.348	0.02984883
534.553	0.02995818
534.757	0.03010624
534.962	0.03026708
535.167	0.03038011
535.371	0.03047913
535.576	0.03058919
535.78	0.03077018
535.985	0.03089977
536.189	0.03103728
536.394	0.03114763
536.598	0.03123114
536.803	0.03135991
537.007	0.03150165
537.211	0.03161263
537.416	0.03174243
537.62	0.03183432
537.825	0.03196474
538.029	0.03211706
538.233	0.03226342
538.438	0.03238272
538.642	0.03251194
538.846	0.03264787
539.05	0.03280136
539.255	0.03290574
539.459	0.03305239
539.663	0.03314251
539.867	0.03328117
540.072	0.03341176
540.276	0.03359107
540.48	0.03373721
540.684	0.03388446
540.888	0.03399889
541.092	0.0341387
541.297	0.03426183
541.501	0.03444846
541.705	0.03455133
541.909	0.03465412
542.113	0.03482762
542.317	0.0349823
542.521	0.03515515
542.725	0.03528804
542.929	0.03541856
543.133	0.03557515
543.337	0.03575983
543.541	0.03591419
543.745	0.03602028
543.949	0.03616569
544.153	0.03631435
544.357	0.03644042
544.56	0.03657992
544.764	0.0366845
544.968	0.03677054
545.172	0.03695782
545.376	0.03709965
545.58	0.03724635
545.783	0.03737588
545.987	0.03750617
546.191	0.03769367
546.395	0.03785356
546.598	0.03795005
546.802	0.03809715
547.006	0.03823172
547.21	0.03836527
547.413	0.03847645
547.617	0.03859036
547.821	0.03873575
548.024	0.03887677
548.228	0.0389988
548.431	0.03913468
548.635	0.03926868
548.839	0.03944791
549.042	0.03958159
549.246	0.03970044
549.449	0.03986616
549.653	0.0400192
549.856	0.04020567
550.06	0.04038086
550.263	0.0405128
550.467	0.04062761
550.67	0.04075234
550.874	0.04089901
551.077	0.04107419
551.28	0.04119017
551.484	0.04131817
551.687	0.04141861
551.891	0.04159353
552.094	0.04173513
552.297	0.04191709
552.501	0.04206614
552.704	0.04217621
552.907	0.04230246
553.11	0.04249867
553.314	0.0426322
553.517	0.0427852
553.72	0.04284875
553.923	0.04296152
554.127	0.04315027
554.33	0.04327334
554.533	0.04338679
554.736	0.04353195
554.939	0.0436674
555.142	0.04382313
555.345	0.04393276
555.549	0.04407891
555.752	0.04420421
555.955	0.04432053
556.158	0.04443842
556.361	0.04458988
556.564	0.04474528
556.767	0.04486384
556.97	0.04496156
557.173	0.04508142
557.376	0.04528314
557.579	0.04544256
557.782	0.04560716
557.984	0.04575534
558.187	0.04599036
558.39	0.04614064
558.593	0.04637688
558.796	0.04650779
558.999	0.04662122
559.202	0.04674583
559.404	0.04685869
559.607	0.04697655
559.81	0.04714003
560.013	0.04724797
560.216	0.04740327
560.418	0.04757408
560.621	0.04774606
560.824	0.0479196
561.026	0.04806597
561.229	0.04820975
561.432	0.04834534
561.634	0.048449
561.837	0.04864564
562.04	0.04875034
562.242	0.04892824
562.445	0.04901625
562.647	0.04915707
562.85	0.04932562
563.053	0.0494821
563.255	0.04954343
563.458	0.04975679
563.66	0.04986739
563.863	0.05001274
564.065	0.05012932
