Data from 0_1_mm_pl_90pc_Absorbance__0__18-56-36-841.txt Node

Date: Wed Mar 01 18:56:36 CET 2023
User: Ange
Spectrometer: FLMT08341
Trigger mode: 0
Integration Time (sec): 1.000000E-2
Scans to average: 400
Electric dark correction enabled: true
Nonlinearity correction enabled: false
Boxcar width: 3
XAxis mode: Wavelengths
Number of Pixels in Spectrum: 3648
>>>>>Begin Spectral Data<<<<<
345.271	0.00868643
345.487	0.02030512
345.704	0.01064437
345.921	0.01221677
346.137	0.02088802
346.354	0.01868438
346.571	0.02991217
346.787	0.03872078
347.004	-0.03608356
347.22	-0.09186248
347.437	-0.14167205
347.653	-0.10941904
347.87	-0.00996708
348.086	0.06619106
348.303	-0
348.519	0.03338811
348.736	0.02832687
348.952	0.02436013
349.169	0.03192701
349.385	0.03423165
349.601	0.03259939
349.818	0.03010915
350.034	0.02727105
350.251	0.02595388
350.467	0.02762612
350.683	0.02338829
350.9	0.0222027
351.116	0.0216317
351.332	0.02166533
351.549	0.02405414
351.765	0.02556592
351.981	0.02515005
352.197	0.0250944
352.414	0.02703361
352.63	0.02803363
352.846	0.02854143
353.062	0.02665736
353.278	0.02661534
353.495	0.02713725
353.711	0.0276347
353.927	0.02623017
354.143	0.02624903
354.359	0.02472443
354.575	0.02465604
354.792	0.02332486
355.008	0.02261657
355.224	0.02224568
355.44	0.02238583
355.656	0.02183181
355.872	0.02273752
356.088	0.02353857
356.304	0.02348959
356.52	0.02315956
356.736	0.02472762
356.952	0.02419359
357.168	0.02389271
357.384	0.02357794
357.6	0.02288684
357.816	0.02264388
358.032	0.02107999
358.248	0.02087565
358.464	0.02140837
358.679	0.02005665
358.895	0.01994836
359.111	0.02108266
359.327	0.02085717
359.543	0.02371157
359.759	0.0222902
359.974	0.02099443
360.19	0.02192842
360.406	0.02276502
360.622	0.02093416
360.838	0.02171512
361.053	0.01980014
361.269	0.02137082
361.485	0.02195377
361.701	0.02209092
361.916	0.02081579
362.132	0.0219683
362.348	0.02052382
362.563	0.02124012
362.779	0.01953186
362.995	0.01915389
363.21	0.0188877
363.426	0.01931186
363.641	0.02028427
363.857	0.02072189
364.073	0.02066748
364.288	0.02128445
364.504	0.02146723
364.719	0.02110917
364.935	0.02059716
365.15	0.01906936
365.366	0.01925209
365.581	0.01778858
365.797	0.01768088
366.012	0.01796071
366.228	0.01779201
366.443	0.01711294
366.658	0.01655817
366.874	0.01639259
367.089	0.01755313
367.305	0.01693383
367.52	0.01651255
367.735	0.0160075
367.951	0.01646394
368.166	0.01657961
368.381	0.01735518
368.597	0.01647179
368.812	0.01711125
369.027	0.01695437
369.243	0.01709956
369.458	0.01724182
369.673	0.01767914
369.888	0.01682897
370.104	0.01737179
370.319	0.0162668
370.534	0.01477446
370.749	0.01438375
370.964	0.01389569
371.179	0.01351085
371.395	0.01249506
371.61	0.01194142
371.825	0.01274835
372.04	0.01394372
372.255	0.01438637
372.47	0.01406291
372.685	0.0131742
372.9	0.01422753
373.115	0.01451401
373.33	0.01431198
373.545	0.01391268
373.76	0.01359496
373.975	0.01390377
374.19	0.01490979
374.405	0.01444922
374.62	0.01493505
374.835	0.01523454
375.05	0.01531782
375.265	0.01553531
375.48	0.01611614
375.695	0.01634234
375.91	0.01654267
376.125	0.01624178
376.339	0.0156887
376.554	0.01612541
376.769	0.01600435
376.984	0.01651781
377.199	0.01607869
377.414	0.01653949
377.628	0.01645822
377.843	0.01587099
378.058	0.01577194
378.273	0.01505725
378.487	0.01438198
378.702	0.01489961
378.917	0.01447681
379.131	0.0137627
379.346	0.01473504
379.561	0.01459058
379.775	0.01480752
379.99	0.01435681
380.205	0.01438072
380.419	0.01406002
380.634	0.01382788
380.848	0.01358993
381.063	0.01397403
381.278	0.01432762
381.492	0.01472451
381.707	0.01390813
381.921	0.01401389
382.136	0.01434736
382.35	0.01416051
382.565	0.01401925
382.779	0.01387541
382.994	0.0133371
383.208	0.01381523
383.422	0.01324182
383.637	0.01323933
383.851	0.01328826
384.066	0.0131939
384.28	0.01328107
384.494	0.01359859
384.709	0.01336654
384.923	0.01364265
385.137	0.01337997
385.352	0.01343995
385.566	0.01300622
385.78	0.01264625
385.995	0.01280577
386.209	0.01257184
386.423	0.01266207
386.637	0.01266004
386.852	0.0120454
387.066	0.0123658
387.28	0.01318343
387.494	0.01349744
387.708	0.01314018
387.923	0.01317068
388.137	0.01341332
388.351	0.01380603
388.565	0.01364943
388.779	0.01286329
388.993	0.01225933
389.207	0.01265769
389.421	0.01249612
389.635	0.01274449
389.85	0.01247043
390.064	0.01251255
390.278	0.01260064
390.492	0.01283537
390.706	0.01303448
390.92	0.01263212
391.134	0.01240075
391.348	0.01258698
391.561	0.0126581
391.775	0.01264111
391.989	0.01237437
392.203	0.01236126
392.417	0.01315266
392.631	0.01322631
392.845	0.01318942
393.059	0.01293197
393.273	0.01327849
393.486	0.01333423
393.7	0.0131433
393.914	0.0125759
394.128	0.01265963
394.342	0.01241427
394.555	0.01261213
394.769	0.01226899
394.983	0.01228463
395.197	0.01225482
395.41	0.01254943
395.624	0.01250302
395.838	0.01261247
396.051	0.01237637
396.265	0.01227162
396.479	0.0122086
396.692	0.01215408
396.906	0.01217927
397.12	0.01218007
397.333	0.01208272
397.547	0.01204907
397.76	0.01230577
397.974	0.01239233
398.187	0.01247176
398.401	0.01235542
398.614	0.0123568
398.828	0.01241771
399.041	0.01217683
399.255	0.01236904
399.468	0.01218036
399.682	0.01239176
399.895	0.01270895
400.109	0.01273191
400.322	0.01279933
400.536	0.01291673
400.749	0.01255686
400.962	0.01264883
401.176	0.01241641
401.389	0.01222101
401.602	0.01194073
401.816	0.01188984
402.029	0.01195111
402.242	0.01222649
402.456	0.01200591
402.669	0.01175786
402.882	0.01135195
403.095	0.01125146
403.309	0.01144701
403.522	0.01157087
403.735	0.01127543
403.948	0.01128989
404.161	0.01152898
404.375	0.01195158
404.588	0.01194784
404.801	0.01173747
405.014	0.01144415
405.227	0.01158402
405.44	0.01187659
405.653	0.01180374
405.866	0.01163839
406.079	0.01176317
406.293	0.01181113
406.506	0.01214569
406.719	0.01185603
406.932	0.01141548
407.145	0.01127122
407.358	0.01130965
407.571	0.01113842
407.784	0.01144303
407.996	0.01123368
408.209	0.01151183
408.422	0.0119927
408.635	0.01181902
408.848	0.01156728
409.061	0.01147054
409.274	0.01105814
409.487	0.01107952
409.7	0.01102136
409.912	0.0109429
410.125	0.01130871
410.338	0.0112897
410.551	0.01150057
410.764	0.01166238
410.976	0.01165692
411.189	0.01162696
411.402	0.01112406
411.615	0.01096643
411.827	0.01114431
412.04	0.01119729
412.253	0.01098607
412.465	0.01082887
412.678	0.010668
412.891	0.01112984
413.103	0.01113015
413.316	0.01121657
413.529	0.0111474
413.741	0.01110076
413.954	0.01106223
414.166	0.01090318
414.379	0.01087726
414.591	0.0106974
414.804	0.01040311
415.016	0.01021272
415.229	0.01040269
415.441	0.01051271
415.654	0.0106397
415.866	0.01043814
416.079	0.0108103
416.291	0.01095175
416.504	0.01123769
416.716	0.0109512
416.928	0.01082334
417.141	0.01084816
417.353	0.01069336
417.566	0.01047642
417.778	0.01045773
417.99	0.01032104
418.203	0.01009361
418.415	0.01027042
418.627	0.01024013
418.839	0.01043103
419.052	0.01046747
419.264	0.0106832
419.476	0.01065611
419.688	0.01090725
419.901	0.01074988
420.113	0.01075331
420.325	0.01066473
420.537	0.01027886
420.749	0.00995068
420.961	0.0101212
421.174	0.00995973
421.386	0.00965854
421.598	0.00952848
421.81	0.00936208
422.022	0.00946852
422.234	0.00974277
422.446	0.00941509
422.658	0.00951841
422.87	0.00992611
423.082	0.00983099
423.294	0.00996646
423.506	0.0099175
423.718	0.00963235
423.93	0.00967471
424.142	0.00966674
424.354	0.00933539
424.566	0.00932465
424.778	0.0091763
424.99	0.0092732
425.202	0.00902833
425.414	0.00887055
425.625	0.00880078
425.837	0.00874446
426.049	0.00872363
426.261	0.00881772
426.473	0.00880466
426.684	0.00887337
426.896	0.00884027
427.108	0.00896245
427.32	0.00917458
427.531	0.00916543
427.743	0.00915102
427.955	0.00908276
428.167	0.00910579
428.378	0.00899822
428.59	0.00882178
428.802	0.00855768
429.013	0.00850004
429.225	0.00835114
429.436	0.00835165
429.648	0.00830999
429.86	0.00837547
430.071	0.00824903
430.283	0.0082192
430.494	0.0082522
430.706	0.00817766
430.917	0.00801069
431.129	0.00795468
431.34	0.00800947
431.552	0.00797066
431.763	0.00814739
431.975	0.00805617
432.186	0.00809907
432.398	0.00802788
432.609	0.00799447
432.821	0.00798085
433.032	0.00808987
433.243	0.00791836
433.455	0.00794461
433.666	0.00788162
433.877	0.00793314
434.089	0.00782895
434.3	0.00769008
434.511	0.00757136
434.723	0.00755718
434.934	0.0074551
435.145	0.00737481
435.356	0.00735648
435.568	0.00740502
435.779	0.00745
435.99	0.00732242
436.201	0.0074175
436.412	0.00731772
436.624	0.00730766
436.835	0.00729325
437.046	0.0072161
437.257	0.00716682
437.468	0.00721104
437.679	0.00709354
437.89	0.00707295
438.101	0.00708476
438.312	0.00681546
438.523	0.00676146
438.734	0.00674491
438.945	0.00668446
439.156	0.00652527
439.367	0.00642945
439.578	0.00631536
439.789	0.00635449
440	0.00636976
440.211	0.00622731
440.422	0.00618257
440.633	0.00616549
440.844	0.00634634
441.055	0.00639036
441.266	0.00627443
441.477	0.00630261
441.687	0.0063111
441.898	0.00639385
442.109	0.00644317
442.32	0.00636727
442.531	0.00642967
442.741	0.00648709
442.952	0.00626094
443.163	0.00625569
443.374	0.00612184
443.584	0.00604818
443.795	0.00586473
444.006	0.0056702
444.216	0.00558004
444.427	0.00563836
444.638	0.00549868
444.848	0.00552046
445.059	0.00548073
445.27	0.00543009
445.48	0.00536745
445.691	0.00560464
445.901	0.00563502
446.112	0.00564768
446.323	0.00562064
446.533	0.00554081
446.744	0.00561005
446.954	0.00560737
447.165	0.00544007
447.375	0.0053744
447.586	0.00531658
447.796	0.0051403
448.006	0.0050847
448.217	0.00510819
448.427	0.00502122
448.638	0.00491564
448.848	0.00478897
449.058	0.00483942
449.269	0.00487568
449.479	0.00479115
449.689	0.00470121
449.9	0.00457262
450.11	0.00456911
450.32	0.00467651
450.531	0.00456003
450.741	0.00452768
450.951	0.00457927
451.161	0.00448463
451.372	0.00454409
451.582	0.00452256
451.792	0.00437068
452.002	0.00436502
452.212	0.00443649
452.422	0.00427671
452.633	0.00420843
452.843	0.00421771
453.053	0.00415974
453.263	0.00416793
453.473	0.00419408
453.683	0.00408589
453.893	0.00406041
454.103	0.00409664
454.313	0.00420568
454.523	0.0042268
454.733	0.00427694
454.943	0.00423231
455.153	0.00416844
455.363	0.00419361
455.573	0.0040822
455.783	0.00384042
455.993	0.00382041
456.203	0.00366847
456.413	0.00368877
456.623	0.00371774
456.833	0.00364748
457.042	0.00378686
457.252	0.00384721
457.462	0.00382888
457.672	0.00382058
457.882	0.00364206
458.091	0.00364391
458.301	0.00365133
458.511	0.00343909
458.721	0.00357119
458.931	0.00346086
459.14	0.00347847
459.35	0.00354495
459.56	0.00341924
459.769	0.0034217
459.979	0.00355239
460.189	0.00338394
460.398	0.00338071
460.608	0.00325553
460.817	0.00322418
461.027	0.00328837
461.237	0.00330088
461.446	0.00325279
461.656	0.00326692
461.865	0.00323709
462.075	0.00331238
462.284	0.00324843
462.494	0.00317716
462.703	0.00317171
462.913	0.00313124
463.122	0.00306545
463.332	0.00297318
463.541	0.002972
463.751	0.0029841
463.96	0.00298005
464.169	0.00301055
464.379	0.002974
464.588	0.00298558
464.797	0.00303948
465.007	0.00296029
465.216	0.00286588
465.425	0.00279431
465.635	0.00275087
465.844	0.00272878
466.053	0.00271398
466.263	0.00271785
466.472	0.00272079
466.681	0.00271504
466.89	0.00277563
467.099	0.00272884
467.309	0.00267261
467.518	0.00258684
467.727	0.00254635
467.936	0.00242425
468.145	0.00243765
468.354	0.00231452
468.563	0.00220106
468.772	0.00231807
468.982	0.00234351
469.191	0.00243121
469.4	0.00257718
469.609	0.00256582
469.818	0.00263421
470.027	0.00274082
470.236	0.00261417
470.445	0.00261341
470.654	0.00250809
470.863	0.00247208
471.072	0.00253416
471.28	0.00250376
471.489	0.00248763
471.698	0.00247842
471.907	0.00249348
472.116	0.00253553
472.325	0.00247249
472.534	0.00243063
472.743	0.00248062
472.951	0.00241504
473.16	0.00233282
473.369	0.00226111
473.578	0.00220979
473.786	0.00219315
473.995	0.00212095
474.204	0.00203446
474.413	0.00211214
474.621	0.00225333
474.83	0.00229741
475.039	0.0021988
475.247	0.00224526
475.456	0.00244509
475.665	0.00245153
475.873	0.00244966
476.082	0.0024306
476.291	0.00237644
476.499	0.002482
476.708	0.00239371
476.916	0.00229155
477.125	0.00226866
477.333	0.00222309
477.542	0.00215851
477.75	0.0021298
477.959	0.00218773
478.167	0.00233114
478.376	0.00224064
478.584	0.0022854
478.793	0.00227767
479.001	0.0023154
479.209	0.00232162
479.418	0.00234653
479.626	0.00232429
479.834	0.00239189
480.043	0.0023836
480.251	0.00238602
480.459	0.00235693
480.668	0.00235168
480.876	0.00223801
481.084	0.00224516
481.293	0.00226816
481.501	0.0023171
481.709	0.00229757
481.917	0.00229859
482.125	0.0023372
482.334	0.00236459
482.542	0.00232254
482.75	0.00224396
482.958	0.00218103
483.166	0.0022321
483.374	0.00230805
483.583	0.00234397
483.791	0.00231981
483.999	0.00233306
484.207	0.00237124
484.415	0.00231127
484.623	0.00231094
484.831	0.00222997
485.039	0.0022803
485.247	0.00237352
485.455	0.00236406
485.663	0.00236578
485.871	0.00250464
486.079	0.00255445
486.287	0.00260113
486.495	0.00261016
486.702	0.00253253
486.91	0.00256916
487.118	0.00262799
487.326	0.00262208
487.534	0.00256287
487.742	0.00260548
487.95	0.00251903
488.157	0.00260758
488.365	0.00256978
488.573	0.00256291
488.781	0.00260517
488.988	0.0026311
489.196	0.00256992
489.404	0.00263899
489.612	0.00263435
489.819	0.00269377
490.027	0.00273623
490.235	0.00273176
490.442	0.0027496
490.65	0.00280182
490.857	0.00280773
491.065	0.00281169
491.273	0.00283374
491.48	0.00285888
491.688	0.00284542
491.895	0.00283394
492.103	0.00288633
492.31	0.00291762
492.518	0.00292535
492.725	0.00289838
492.933	0.0028375
493.14	0.00286251
493.348	0.00294495
493.555	0.00293451
493.763	0.00289411
493.97	0.00292808
494.177	0.00295756
494.385	0.00292288
494.592	0.00295099
494.8	0.00295449
495.007	0.00294737
495.214	0.00300536
495.422	0.00301599
495.629	0.00306311
495.836	0.00316154
496.043	0.00314244
496.251	0.0031121
496.458	0.00313439
496.665	0.00318073
496.872	0.00319733
497.08	0.00318292
497.287	0.003232
497.494	0.00324866
497.701	0.00327705
497.908	0.00330903
498.115	0.00333347
498.322	0.00335672
498.53	0.00338406
498.737	0.00336214
498.944	0.00342926
499.151	0.00351889
499.358	0.0035901
499.565	0.00360161
499.772	0.00361938
499.979	0.00362898
500.186	0.003682
500.393	0.00366946
500.6	0.00367634
500.807	0.00368407
501.014	0.00365357
501.221	0.00369482
501.427	0.00374599
501.634	0.00374443
501.841	0.00376027
502.048	0.00374084
502.255	0.00377412
502.462	0.00382707
502.669	0.00385018
502.875	0.00388345
503.082	0.00394919
503.289	0.00403396
503.496	0.00411081
503.702	0.00409197
503.909	0.00409134
504.116	0.004154
504.323	0.00419304
504.529	0.00421639
504.736	0.00421461
504.943	0.00424779
505.149	0.00434508
505.356	0.00440012
505.563	0.00441342
505.769	0.0044165
505.976	0.00438067
506.182	0.00443085
506.389	0.0044314
506.595	0.0044432
506.802	0.0044786
507.008	0.00452436
507.215	0.00455527
507.421	0.00467668
507.628	0.00468604
507.834	0.00471237
508.041	0.00475933
508.247	0.00479459
508.454	0.00479856
508.66	0.00484285
508.866	0.00489338
509.073	0.00493027
509.279	0.00501083
509.486	0.00498706
509.692	0.00500466
509.898	0.00504414
510.105	0.00508597
510.311	0.00512892
510.517	0.00515789
510.723	0.00518694
510.93	0.0052602
511.136	0.00529405
511.342	0.00535048
511.548	0.00540026
511.754	0.00537509
511.961	0.00543649
512.167	0.00547593
512.373	0.00551137
512.579	0.00559086
512.785	0.00566508
512.991	0.00569152
513.197	0.00574257
513.404	0.00583211
513.61	0.00588313
513.816	0.0059428
514.022	0.00600919
514.228	0.00601272
514.434	0.00603062
514.64	0.00609244
514.846	0.00604817
515.052	0.00604584
515.258	0.00606532
515.464	0.00607082
515.669	0.00612773
515.875	0.00620515
516.081	0.00622875
516.287	0.00633922
516.493	0.00640792
516.699	0.00642674
516.905	0.00648829
517.111	0.00649694
517.316	0.00659065
517.522	0.00669049
517.728	0.00675245
517.934	0.00682714
518.139	0.00693663
518.345	0.00695553
518.551	0.0069975
518.757	0.00705054
518.962	0.00706848
519.168	0.00711108
519.374	0.00712457
519.579	0.00713232
519.785	0.00721514
519.991	0.00732457
520.196	0.00736788
520.402	0.00742833
520.607	0.00741994
520.813	0.00747823
521.018	0.0075443
521.224	0.00758998
521.429	0.00761441
521.635	0.00766318
521.84	0.00769992
522.046	0.00777774
522.251	0.00786062
522.457	0.0079834
522.662	0.00804676
522.868	0.00810492
523.073	0.00816189
523.279	0.00825606
523.484	0.00834338
523.689	0.00841274
523.895	0.00847136
524.1	0.0085857
524.305	0.00865084
524.511	0.00866106
524.716	0.00864646
524.921	0.00864289
525.126	0.00866082
525.332	0.00863394
525.537	0.00868062
525.742	0.0087133
525.947	0.00876701
526.153	0.00886721
526.358	0.0089495
526.563	0.00905325
526.768	0.00915903
526.973	0.00916782
527.178	0.00925191
527.383	0.00939784
527.588	0.00946844
527.794	0.00955934
527.999	0.00958556
528.204	0.00969254
528.409	0.00983975
528.614	0.00993741
528.819	0.0099555
529.024	0.01001094
529.229	0.01007892
529.434	0.01015618
529.639	0.01022511
529.843	0.01025008
530.048	0.01029231
530.253	0.01038823
530.458	0.01047928
530.663	0.01059206
530.868	0.01067897
531.073	0.01069555
531.278	0.01077883
531.482	0.01086833
531.687	0.01096899
531.892	0.01101803
532.097	0.01105874
532.302	0.01111869
532.506	0.01123125
532.711	0.01128968
532.916	0.01134781
533.12	0.0114092
533.325	0.0115106
533.53	0.01157908
533.734	0.01167752
533.939	0.01174452
534.144	0.01181091
534.348	0.01190327
534.553	0.01194768
534.757	0.01199249
534.962	0.01211829
535.167	0.01215839
535.371	0.01224704
535.576	0.01235159
535.78	0.01245542
535.985	0.0125368
536.189	0.01266365
536.394	0.01271219
536.598	0.01282633
536.803	0.0128592
537.007	0.01292401
537.211	0.01297306
537.416	0.01301509
537.62	0.0130504
537.825	0.01312631
538.029	0.01317514
538.233	0.01324819
538.438	0.01326671
538.642	0.01336367
538.846	0.01346514
539.05	0.01355879
539.255	0.01366389
539.459	0.01378501
539.663	0.01391328
539.867	0.01407928
540.072	0.01416817
540.276	0.01426556
540.48	0.01436824
540.684	0.01443234
540.888	0.01456778
541.092	0.01465195
541.297	0.01473782
541.501	0.01478991
541.705	0.0148875
541.909	0.01499415
542.113	0.01512914
542.317	0.01521042
542.521	0.0153318
542.725	0.01544153
542.929	0.01560288
543.133	0.01574859
543.337	0.01590619
543.541	0.01597245
543.745	0.0160537
543.949	0.01621046
544.153	0.01631786
544.357	0.01644009
544.56	0.01651987
544.764	0.01654607
544.968	0.01668843
545.172	0.01682352
545.376	0.01687797
545.58	0.01699775
545.783	0.01708135
545.987	0.0172122
546.191	0.01736153
546.395	0.01747108
546.598	0.01756761
546.802	0.01769737
547.006	0.01780917
547.21	0.01790048
547.413	0.01802525
547.617	0.01814262
547.821	0.01825929
548.024	0.01840184
548.228	0.0184667
548.431	0.01860235
548.635	0.01876357
548.839	0.0188743
549.042	0.01899738
549.246	0.01910794
549.449	0.01920181
549.653	0.01932508
549.856	0.01938241
550.06	0.01950132
550.263	0.01959442
550.467	0.01970898
550.67	0.01980495
550.874	0.01989278
551.077	0.0200265
551.28	0.02019908
551.484	0.02028067
551.687	0.020371
551.891	0.02049292
552.094	0.02059078
552.297	0.02077048
552.501	0.02090176
552.704	0.0210102
552.907	0.02113284
553.11	0.0212944
553.314	0.02143806
553.517	0.02161223
553.72	0.02166418
553.923	0.0218121
554.127	0.0218894
554.33	0.02202675
554.533	0.02214755
554.736	0.02223864
554.939	0.02236289
555.142	0.02255526
555.345	0.02264902
555.549	0.02281428
555.752	0.0229639
555.955	0.02308356
556.158	0.02319406
556.361	0.02330207
556.564	0.02341024
556.767	0.02355071
556.97	0.02367739
557.173	0.0237956
557.376	0.02396321
557.579	0.02412151
557.782	0.02427861
557.984	0.02441873
558.187	0.02457604
558.39	0.02471997
558.593	0.02483502
558.796	0.02497316
558.999	0.02513849
559.202	0.02526961
559.404	0.02537386
559.607	0.02550664
559.81	0.02566527
560.013	0.02588133
560.216	0.02598045
560.418	0.02611309
560.621	0.02627009
560.824	0.02645107
561.026	0.02659364
561.229	0.02672695
561.432	0.02685903
561.634	0.02704674
561.837	0.02720852
562.04	0.0273664
562.242	0.02749616
562.445	0.02768584
562.647	0.02785131
562.85	0.02795782
563.053	0.02814934
563.255	0.02825661
563.458	0.02837888
563.66	0.02856516
563.863	0.02872728
564.065	0.02888067
