Data from 0_1_mm_pl_100pc_Absorbance__0__16-15-43-203.txt Node

Date: Fri Feb 24 16:15:43 CET 2023
User: Ange
Spectrometer: FLMT08341
Trigger mode: 0
Integration Time (sec): 1.000000E-2
Scans to average: 400
Electric dark correction enabled: true
Nonlinearity correction enabled: false
Boxcar width: 3
XAxis mode: Wavelengths
Number of Pixels in Spectrum: 3648
>>>>>Begin Spectral Data<<<<<
345.271	-0.00046942
345.487	0.00861788
345.704	0.02685737
345.921	0.02796787
346.137	0.02488494
346.354	0.01883913
346.571	-0.02382374
346.787	-0.10217531
347.004	0.13598715
347.22	0.1491657
347.437	0.34411064
347.653	0.36096038
347.87	-0.19149349
348.086	1.31511589
348.303	-0.41242773
348.519	0.2704696
348.736	0.24832551
348.952	0.26100885
349.169	0.26525887
349.385	0.27586755
349.601	0.27558212
349.818	0.27640153
350.034	0.27834304
350.251	0.28163409
350.467	0.2857372
350.683	0.28297243
350.9	0.28410525
351.116	0.28416053
351.332	0.28383492
351.549	0.29342353
351.765	0.30184484
351.981	0.30892741
352.197	0.31890656
352.414	0.33129675
352.63	0.34253004
352.846	0.35137083
353.062	0.34827369
353.278	0.34789398
353.495	0.35507462
353.711	0.35917948
353.927	0.36155968
354.143	0.36204034
354.359	0.36025674
354.575	0.36022763
354.792	0.36927533
355.008	0.36315143
355.224	0.36005862
355.44	0.35790249
355.656	0.35891752
355.872	0.36722614
356.088	0.38864927
356.304	0.39066039
356.52	0.39646278
356.736	0.40531926
356.952	0.41427208
357.168	0.41730878
357.384	0.42392999
357.6	0.41363445
357.816	0.42249843
358.032	0.43218018
358.248	0.44552259
358.464	0.44761911
358.679	0.45589907
358.895	0.46001487
359.111	0.46782258
359.327	0.4625736
359.543	0.46625855
359.759	0.46913433
359.974	0.47253789
360.19	0.47374526
360.406	0.47449193
360.622	0.47383523
360.838	0.47542942
361.053	0.47940122
361.269	0.4823585
361.485	0.48559234
361.701	0.49272099
361.916	0.49237593
362.132	0.49555499
362.348	0.50259179
362.563	0.50557936
362.779	0.50347882
362.995	0.51261205
363.21	0.51873641
363.426	0.52108698
363.641	0.52423607
363.857	0.52951335
364.073	0.52923282
364.288	0.52996849
364.504	0.53639235
364.719	0.53835216
364.935	0.54246816
365.15	0.54685406
365.366	0.55014222
365.581	0.56058354
365.797	0.56591821
366.012	0.560635
366.228	0.5570848
366.443	0.56786479
366.658	0.57256946
366.874	0.56807331
367.089	0.57329102
367.305	0.57852503
367.52	0.58315581
367.735	0.58428044
367.951	0.57915226
368.166	0.58179758
368.381	0.59329984
368.597	0.58970055
368.812	0.59369897
369.027	0.59760699
369.243	0.60380932
369.458	0.61891835
369.673	0.62285869
369.888	0.62660642
370.104	0.62457646
370.319	0.62631319
370.534	0.62453849
370.749	0.6279739
370.964	0.62836305
371.179	0.62679634
371.395	0.6239604
371.61	0.6325319
371.825	0.63003861
372.04	0.63523245
372.255	0.63530349
372.47	0.62988904
372.685	0.62835926
372.9	0.62943309
373.115	0.62639301
373.33	0.6316529
373.545	0.63317375
373.76	0.63783032
373.975	0.6398462
374.19	0.64146444
374.405	0.64361165
374.62	0.6524488
374.835	0.66296791
375.05	0.66693175
375.265	0.66889186
375.48	0.67345084
375.695	0.69020173
375.91	0.69044072
376.125	0.68214747
376.339	0.67152935
376.554	0.67201267
376.769	0.67299491
376.984	0.67414056
377.199	0.67296993
377.414	0.6742084
377.628	0.68559628
377.843	0.69448501
378.058	0.6977461
378.273	0.70305362
378.487	0.70552744
378.702	0.70885346
378.917	0.71423257
379.131	0.71022333
379.346	0.70426873
379.561	0.70309442
379.775	0.70146059
379.99	0.69854238
380.205	0.69088195
380.419	0.68593091
380.634	0.6796545
380.848	0.68659647
381.063	0.68876958
381.278	0.69722234
381.492	0.69526824
381.707	0.70429417
381.921	0.70581885
382.136	0.71905789
382.35	0.716921
382.565	0.71294268
382.779	0.71276055
382.994	0.71736601
383.208	0.71336581
383.422	0.72367596
383.637	0.7216607
383.851	0.72823749
384.066	0.73624288
384.28	0.7380187
384.494	0.74141015
384.709	0.74530896
384.923	0.74305912
385.137	0.73924707
385.352	0.73641059
385.566	0.73893241
385.78	0.7349429
385.995	0.73371714
386.209	0.73242975
386.423	0.73708194
386.637	0.74338156
386.852	0.74075889
387.066	0.73725147
387.28	0.73702967
387.494	0.74225451
387.708	0.74372903
387.923	0.74074234
388.137	0.74339848
388.351	0.74769759
388.565	0.75251953
388.779	0.75493641
388.993	0.76044552
389.207	0.76144592
389.421	0.76324799
389.635	0.75850185
389.85	0.75674185
390.064	0.75459155
390.278	0.75531067
390.492	0.75367118
390.706	0.75423688
390.92	0.75418736
391.134	0.75986081
391.348	0.76876476
391.561	0.76698569
391.775	0.76429896
391.989	0.75780857
392.203	0.75940877
392.417	0.76068518
392.631	0.76200105
392.845	0.75636604
393.059	0.76133762
393.273	0.76023024
393.486	0.75748908
393.7	0.75093122
393.914	0.75153433
394.128	0.74777011
394.342	0.74513382
394.555	0.73804964
394.769	0.73789125
394.983	0.7403605
395.197	0.74377887
395.41	0.74146286
395.624	0.74397024
395.838	0.74241794
396.051	0.74959275
396.265	0.7465786
396.479	0.74683653
396.692	0.74543041
396.906	0.74154175
397.12	0.73881091
397.333	0.74066566
397.547	0.73602995
397.76	0.73886156
397.974	0.73846128
398.187	0.73838352
398.401	0.74076078
398.614	0.73897727
398.828	0.7379401
399.041	0.73744315
399.255	0.73464269
399.468	0.73221011
399.682	0.73046251
399.895	0.72985684
400.109	0.72660045
400.322	0.72322539
400.536	0.71655915
400.749	0.71909166
400.962	0.71744261
401.176	0.71411928
401.389	0.71036751
401.602	0.70508453
401.816	0.70473275
402.029	0.70811524
402.242	0.70280596
402.456	0.70035313
402.669	0.69709371
402.882	0.6908505
403.095	0.69430233
403.309	0.6921879
403.522	0.6903527
403.735	0.68817979
403.948	0.68704377
404.161	0.69133153
404.375	0.69309678
404.588	0.69061411
404.801	0.68881611
405.014	0.68457359
405.227	0.68613799
405.44	0.68589088
405.653	0.68397736
405.866	0.6803449
406.079	0.67740179
406.293	0.67460108
406.506	0.67262236
406.719	0.66869185
406.932	0.66499788
407.145	0.65965352
407.358	0.66141405
407.571	0.65799318
407.784	0.65735719
407.996	0.65673991
408.209	0.65236447
408.422	0.64838007
408.635	0.64765795
408.848	0.64525211
409.061	0.64194374
409.274	0.63864038
409.487	0.63533745
409.7	0.63421394
409.912	0.63411946
410.125	0.63170308
410.338	0.62840921
410.551	0.62685391
410.764	0.62488503
410.976	0.62275847
411.189	0.62114505
411.402	0.61859487
411.615	0.61711594
411.827	0.6155463
412.04	0.61400574
412.253	0.61138863
412.465	0.60881144
412.678	0.60549076
412.891	0.60429067
413.103	0.59854713
413.316	0.5949834
413.529	0.59431095
413.741	0.5932121
413.954	0.591859
414.166	0.59054163
414.379	0.58764581
414.591	0.5878354
414.804	0.58552764
415.016	0.58213985
415.229	0.57917902
415.441	0.57557824
415.654	0.57375896
415.866	0.57217631
416.079	0.5700962
416.291	0.56824759
416.504	0.56791999
416.716	0.56610415
416.928	0.5649768
417.141	0.56209554
417.353	0.55985593
417.566	0.55593979
417.778	0.55381399
417.99	0.54859871
418.203	0.54487034
418.415	0.54254381
418.627	0.54133648
418.839	0.5388311
419.052	0.53899267
419.264	0.5368163
419.476	0.53587634
419.688	0.53507774
419.901	0.53309693
420.113	0.52996172
420.325	0.52718192
420.537	0.52345943
420.749	0.52180032
420.961	0.52015259
421.174	0.51748637
421.386	0.5144313
421.598	0.51219048
421.81	0.51016269
422.022	0.50816729
422.234	0.50579468
422.446	0.50286886
422.658	0.50026024
422.87	0.49856587
423.082	0.49624894
423.294	0.4938073
423.506	0.49189737
423.718	0.48970188
423.93	0.48724664
424.142	0.48516386
424.354	0.48254989
424.566	0.48054801
424.778	0.47887866
424.99	0.47677808
425.202	0.47389901
425.414	0.47217137
425.625	0.47047907
425.837	0.46775274
426.049	0.4664373
426.261	0.46410876
426.473	0.46144815
426.684	0.45994861
426.896	0.45837985
427.108	0.45595566
427.32	0.4548473
427.531	0.45202736
427.743	0.45011706
427.955	0.4491396
428.167	0.44692589
428.378	0.44437391
428.59	0.44278088
428.802	0.44075244
429.013	0.43875563
429.225	0.43655738
429.436	0.4341257
429.648	0.43230143
429.86	0.43082165
430.071	0.42890918
430.283	0.42691618
430.494	0.42487128
430.706	0.42318646
430.917	0.42137806
431.129	0.41973092
431.34	0.41754736
431.552	0.41547915
431.763	0.413305
431.975	0.41193091
432.186	0.40955693
432.398	0.40737091
432.609	0.40452568
432.821	0.4027031
433.032	0.40091574
433.243	0.39906597
433.455	0.3969844
433.666	0.39544209
433.877	0.39433486
434.089	0.39253691
434.3	0.39039637
434.511	0.3879008
434.723	0.38620294
434.934	0.38419893
435.145	0.38187906
435.356	0.37939899
435.568	0.37781822
435.779	0.37608947
435.99	0.37436656
436.201	0.37240528
436.412	0.37052177
436.624	0.36910774
436.835	0.36778456
437.046	0.36641162
437.257	0.36468242
437.468	0.36368452
437.679	0.36236926
437.89	0.36077741
438.101	0.35929792
438.312	0.35755542
438.523	0.3557662
438.734	0.35422775
438.945	0.35228494
439.156	0.35025041
439.367	0.34868317
439.578	0.34737308
439.789	0.34517919
440	0.34366912
440.211	0.34162555
440.422	0.3399529
440.633	0.33838524
440.844	0.33629671
441.055	0.33425047
441.266	0.33296726
441.477	0.3308477
441.687	0.32950099
441.898	0.32781953
442.109	0.32603126
442.32	0.32468255
442.531	0.32264639
442.741	0.32042249
442.952	0.31905084
443.163	0.31741146
443.374	0.31543627
443.584	0.31381344
443.795	0.31225325
444.006	0.31112051
444.216	0.30985849
444.427	0.30786943
444.638	0.30611207
444.848	0.30472827
445.059	0.30319468
445.27	0.30160087
445.48	0.29977906
445.691	0.29830452
445.901	0.29704025
446.112	0.29559487
446.323	0.29389286
446.533	0.29221691
446.744	0.29055369
446.954	0.28887969
447.165	0.28742821
447.375	0.28604685
447.586	0.28470692
447.796	0.28342445
448.006	0.28205127
448.217	0.28062939
448.427	0.27926226
448.638	0.27757993
448.848	0.27571253
449.058	0.27414543
449.269	0.27255944
449.479	0.27115957
449.689	0.26963145
449.9	0.26823824
450.11	0.26678984
450.32	0.26571653
450.531	0.26406198
450.741	0.26254793
450.951	0.26107241
451.161	0.25954211
451.372	0.25811637
451.582	0.25705663
451.792	0.25549411
452.002	0.25405794
452.212	0.25268977
452.422	0.25127431
452.633	0.24982798
452.843	0.24846172
453.053	0.24639102
453.263	0.24496158
453.473	0.24365031
453.683	0.24236526
453.893	0.24078817
454.103	0.2395419
454.313	0.23803854
454.523	0.23681438
454.733	0.23539442
454.943	0.23422926
455.153	0.23305125
455.363	0.23170626
455.573	0.23028043
455.783	0.22910439
455.993	0.22785828
456.203	0.22670698
456.413	0.22519989
456.623	0.2236527
456.833	0.22264927
457.042	0.22141187
457.252	0.2199159
457.462	0.21856482
457.672	0.21726199
457.882	0.2161392
458.091	0.21489527
458.301	0.21325417
458.511	0.21192027
458.721	0.21075438
458.931	0.20958068
459.14	0.20829663
459.35	0.20709347
459.56	0.20594871
459.769	0.20494734
459.979	0.20370933
460.189	0.20247171
460.398	0.20123628
460.608	0.19997745
460.817	0.19866308
461.027	0.19754793
461.237	0.1962806
461.446	0.19512261
461.656	0.19419171
461.865	0.19310425
462.075	0.19205616
462.284	0.19115354
462.494	0.18993408
462.703	0.18878311
462.913	0.18776131
463.122	0.18659212
463.332	0.18537635
463.541	0.18442736
463.751	0.18311714
463.96	0.18201758
464.169	0.18101775
464.379	0.18009686
464.588	0.17891443
464.797	0.17779188
465.007	0.17658509
465.216	0.17555986
465.425	0.1745443
465.635	0.17347102
465.844	0.17220162
466.053	0.17112516
466.263	0.17013
466.472	0.16910455
466.681	0.1680989
466.89	0.1669259
467.099	0.16590324
467.309	0.16494242
467.518	0.1640656
467.727	0.16307925
467.936	0.16212303
468.145	0.16108551
468.354	0.16025048
468.563	0.15916012
468.772	0.15809454
468.982	0.15696292
469.191	0.15597623
469.4	0.15487862
469.609	0.15394537
469.818	0.15291038
470.027	0.15210025
470.236	0.15100353
470.445	0.15003961
470.654	0.14893084
470.863	0.14798489
471.072	0.14705456
471.28	0.14600293
471.489	0.14495143
471.698	0.14411203
471.907	0.14321751
472.116	0.14249529
472.325	0.1415431
472.534	0.14052484
472.743	0.13968296
472.951	0.13872789
473.16	0.13781498
473.369	0.13686966
473.578	0.13582375
473.786	0.13496835
473.995	0.13403669
474.204	0.13315045
474.413	0.13231394
474.621	0.13148112
474.83	0.13065018
475.039	0.12992927
475.247	0.12897249
475.456	0.12824285
475.665	0.12737737
475.873	0.12644815
476.082	0.12555191
476.291	0.12473522
476.499	0.12379973
476.708	0.12312454
476.916	0.12225709
477.125	0.12146537
477.333	0.12074605
477.542	0.11992214
477.75	0.11911628
477.959	0.11843708
478.167	0.11754029
478.376	0.1167337
478.584	0.11593414
478.793	0.11509664
479.001	0.11432142
479.209	0.11359635
479.418	0.11279507
479.626	0.11207406
479.834	0.11126254
480.043	0.11047992
480.251	0.10977901
480.459	0.10901364
480.668	0.1081775
480.876	0.10733581
481.084	0.10649127
481.293	0.10573548
481.501	0.10500416
481.709	0.10422262
481.917	0.10358007
482.125	0.10286423
482.334	0.10218443
482.542	0.10153572
482.75	0.10090411
482.958	0.10029294
483.166	0.09954065
483.374	0.098799
483.583	0.09820401
483.791	0.09752381
483.999	0.09681838
484.207	0.09616642
484.415	0.0954729
484.623	0.09487502
484.831	0.09419393
485.039	0.09342684
485.247	0.09277107
485.455	0.09207841
485.663	0.09143453
485.871	0.09080361
486.079	0.09010769
486.287	0.08944613
486.495	0.08886777
486.702	0.08814541
486.91	0.08752023
487.118	0.08677883
487.326	0.08604564
487.534	0.08546649
487.742	0.08486274
487.95	0.08423608
488.157	0.08367416
488.365	0.08306905
488.573	0.08249006
488.781	0.08193849
488.988	0.08127234
489.196	0.08066445
489.404	0.08012181
489.612	0.07953211
489.819	0.07900451
490.027	0.07852062
490.235	0.07792568
490.442	0.07741897
490.65	0.07687315
490.857	0.07629426
491.065	0.07577557
491.273	0.075199
491.48	0.0745957
491.688	0.07405639
491.895	0.07353702
492.103	0.07298023
492.31	0.07247837
492.518	0.07196103
492.725	0.07148866
492.933	0.07095968
493.14	0.07038848
493.348	0.06985467
493.555	0.06933971
493.763	0.06881768
493.97	0.06829483
494.177	0.06774394
494.385	0.06715959
494.592	0.06668672
494.8	0.06618056
495.007	0.06569987
495.214	0.06520321
495.422	0.0646573
495.629	0.06412088
495.836	0.0636816
496.043	0.06315438
496.251	0.06265743
496.458	0.06221791
496.665	0.0617715
496.872	0.06126615
497.08	0.06088159
497.287	0.06040011
497.494	0.05994092
497.701	0.05950611
497.908	0.0589965
498.115	0.05851061
498.322	0.05809952
498.53	0.05761865
498.737	0.05720371
498.944	0.05677642
499.151	0.05634263
499.358	0.05597401
499.565	0.05554878
499.772	0.05511439
499.979	0.05471897
500.186	0.05429991
500.393	0.05395112
500.6	0.05351331
500.807	0.05306439
501.014	0.05261479
501.221	0.05225841
501.427	0.05179209
501.634	0.05140359
501.841	0.05094198
502.048	0.0505294
502.255	0.05009314
502.462	0.04972426
502.669	0.04931218
502.875	0.04893774
503.082	0.04852953
503.289	0.04810302
503.496	0.04766998
503.702	0.04733736
503.909	0.04699376
504.116	0.04663294
504.323	0.04625779
504.529	0.04594094
504.736	0.04564801
504.943	0.04536615
505.149	0.0449985
505.356	0.04461834
505.563	0.04429459
505.769	0.04398246
505.976	0.04360422
506.182	0.04327253
506.389	0.04293377
506.595	0.04258845
506.802	0.04225701
507.008	0.04192208
507.215	0.04160234
507.421	0.04130605
507.628	0.0409354
507.834	0.04060673
508.041	0.04028099
508.247	0.03992212
508.454	0.03960006
508.66	0.03925433
508.866	0.03893621
509.073	0.03863412
509.279	0.03830112
509.486	0.03801198
509.692	0.0377528
509.898	0.03741682
510.105	0.03718036
510.311	0.03682521
510.517	0.03658737
510.723	0.03633973
510.93	0.03604106
511.136	0.03574925
511.342	0.03541982
511.548	0.03512012
511.754	0.03485284
511.961	0.03453385
512.167	0.0342344
512.373	0.03397136
512.579	0.03371989
512.785	0.03350078
512.991	0.03318171
513.197	0.03295019
513.404	0.03269676
513.61	0.03244914
513.816	0.03221769
514.022	0.03196077
514.228	0.03171206
514.434	0.03148642
514.64	0.03124054
514.846	0.0309798
515.052	0.03076804
515.258	0.03046711
515.464	0.03015146
515.669	0.02988544
515.875	0.02965187
516.081	0.02943223
516.287	0.02918739
516.493	0.02894685
516.699	0.0287522
516.905	0.0285637
517.111	0.02830677
517.316	0.02805068
517.522	0.02781615
517.728	0.02765186
517.934	0.02739059
518.139	0.02721283
518.345	0.02702945
518.551	0.02685643
518.757	0.02666525
518.962	0.02644273
519.168	0.02615554
519.374	0.02590107
519.579	0.02568016
519.785	0.02544319
519.991	0.02521638
520.196	0.02500156
520.402	0.02481142
520.607	0.02466817
520.813	0.02451476
521.018	0.02427652
521.224	0.02408734
521.429	0.02394129
521.635	0.02369395
521.84	0.02345888
522.046	0.02324919
522.251	0.02304086
522.457	0.02281204
522.662	0.02260715
522.868	0.02239746
523.073	0.02226426
523.279	0.02209031
523.484	0.02190805
523.689	0.02177436
523.895	0.02162822
524.1	0.02144527
524.305	0.02128423
524.511	0.0211382
524.716	0.02095259
524.921	0.02080693
525.126	0.02058652
525.332	0.02046937
525.537	0.02030558
525.742	0.02014014
525.947	0.01998411
526.153	0.01982787
526.358	0.0196109
526.563	0.01946263
526.768	0.0192528
526.973	0.0191414
527.178	0.01897211
527.383	0.01877287
527.588	0.01862278
527.794	0.01849707
527.999	0.01833221
528.204	0.01820502
528.409	0.01807195
528.614	0.01792988
528.819	0.01776991
529.024	0.0175923
529.229	0.01746844
529.434	0.01733633
529.639	0.0171923
529.843	0.0169799
530.048	0.01681236
530.253	0.01671892
530.458	0.01660167
530.663	0.01638835
530.868	0.01625511
531.073	0.01608888
531.278	0.01598055
531.482	0.01585691
531.687	0.0157067
531.892	0.01562558
532.097	0.01552667
532.302	0.01541786
532.506	0.01530551
532.711	0.01515437
532.916	0.0151033
533.12	0.01500533
533.325	0.0148708
533.53	0.01477479
533.734	0.01462822
533.939	0.01451927
534.144	0.01447654
534.348	0.01428604
534.553	0.014169
534.757	0.01404405
534.962	0.01390705
535.167	0.01383452
535.371	0.01375368
535.576	0.01362187
535.78	0.01354794
535.985	0.01343706
536.189	0.01334893
536.394	0.01325493
536.598	0.01313448
536.803	0.0130002
537.007	0.01288031
537.211	0.01277662
537.416	0.01265518
537.62	0.0124677
537.825	0.01238615
538.029	0.0122718
538.233	0.01213961
538.438	0.01203568
538.642	0.0119016
538.846	0.01175803
539.05	0.01170373
539.255	0.01159628
539.459	0.01148398
539.663	0.01142888
539.867	0.01128255
540.072	0.01118333
540.276	0.01115601
540.48	0.01106561
540.684	0.01095799
540.888	0.01087805
541.092	0.01075059
541.297	0.0107133
541.501	0.01063418
541.705	0.01051243
541.909	0.01040846
542.113	0.01035222
542.317	0.01027686
542.521	0.0101824
542.725	0.01011384
542.929	0.01001217
543.133	0.00995914
543.337	0.00991377
543.541	0.00981163
543.745	0.00973655
543.949	0.00967895
544.153	0.00954292
544.357	0.00944998
544.56	0.0093763
544.764	0.0092827
544.968	0.00919981
545.172	0.00911418
545.376	0.00903649
545.58	0.00900888
545.783	0.00897194
545.987	0.00886728
546.191	0.00880927
546.395	0.00876066
546.598	0.00872301
546.802	0.00867278
547.006	0.00858848
547.21	0.00853119
547.413	0.00850086
547.617	0.00847132
547.821	0.00840824
548.024	0.00832981
548.228	0.00826758
548.431	0.00822563
548.635	0.00819774
548.839	0.00811553
549.042	0.00802744
549.246	0.00796105
549.449	0.0078969
549.653	0.00781568
549.856	0.00775042
550.06	0.0076888
550.263	0.0076152
550.467	0.00753403
550.67	0.00746191
550.874	0.00740572
551.077	0.00734666
551.28	0.00729762
551.484	0.00719735
551.687	0.00715517
551.891	0.00713706
552.094	0.00706072
552.297	0.00699411
552.501	0.00693187
552.704	0.00683265
552.907	0.00678574
553.11	0.0067246
553.314	0.006636
553.517	0.00662
553.72	0.00656784
553.923	0.00655418
554.127	0.00651258
554.33	0.00646293
554.533	0.00645505
554.736	0.00642148
554.939	0.00634379
555.142	0.00629006
555.345	0.00620443
555.549	0.00617683
555.752	0.00614354
555.955	0.00603379
556.158	0.00600639
556.361	0.00596431
556.564	0.00593463
556.767	0.00591411
556.97	0.0059168
557.173	0.00588806
557.376	0.00591661
557.579	0.00586853
557.782	0.00586693
557.984	0.00580206
558.187	0.00576986
558.39	0.00568823
558.593	0.00562183
558.796	0.00553138
558.999	0.00545892
559.202	0.00540211
559.404	0.00536877
559.607	0.00536162
559.81	0.0052968
560.013	0.00525607
560.216	0.00523755
560.418	0.00521863
560.621	0.00518481
560.824	0.00517174
561.026	0.0050995
561.229	0.00507912
561.432	0.00505612
561.634	0.00501318
561.837	0.00497687
562.04	0.00490388
562.242	0.00488814
562.445	0.00485958
562.647	0.00479156
562.85	0.00472072
563.053	0.00467871
563.255	0.00461591
563.458	0.00461412
563.66	0.00452008
563.863	0.00447093
564.065	0.0044336
