Data from 0_1_mm_pl_50pc_Absorbance__0__16-11-24-384.txt Node

Date: Fri Feb 24 16:11:24 CET 2023
User: Ange
Spectrometer: FLMT08341
Trigger mode: 0
Integration Time (sec): 1.000000E-2
Scans to average: 400
Electric dark correction enabled: true
Nonlinearity correction enabled: false
Boxcar width: 3
XAxis mode: Wavelengths
Number of Pixels in Spectrum: 3648
>>>>>Begin Spectral Data<<<<<
345.271	0.06365082
345.487	0.05431285
345.704	0.04960912
345.921	0.04857592
346.137	0.05108271
346.354	0.02748936
346.571	0.03951356
346.787	0.03704087
347.004	0.04913125
347.22	-0.02595996
347.437	-0.01700396
347.653	0.26033858
347.87	-0.05587413
348.086	-0.57971941
348.303	0.01863366
348.519	0.52369926
348.736	0.4869107
348.952	0.48663365
349.169	0.50681925
349.385	0.53012344
349.601	0.52688142
349.818	0.52353372
350.034	0.51584773
350.251	0.51321329
350.467	0.52300096
350.683	0.50278352
350.9	0.5012361
351.116	0.49438739
351.332	0.48313907
351.549	0.49802063
351.765	0.51257308
351.981	0.51537376
352.197	0.54186189
352.414	0.55865883
352.63	0.57723482
352.846	0.59832883
353.062	0.58483048
353.278	0.57126317
353.495	0.5885853
353.711	0.58718384
353.927	0.59018056
354.143	0.58545929
354.359	0.57935653
354.575	0.57999862
354.792	0.59812711
355.008	0.58378271
355.224	0.57831288
355.44	0.57472237
355.656	0.56999865
355.872	0.57747961
356.088	0.60821769
356.304	0.60780109
356.52	0.61259374
356.736	0.61694043
356.952	0.61850478
357.168	0.62477736
357.384	0.63040588
357.6	0.60818287
357.816	0.61842565
358.032	0.62644129
358.248	0.64396968
358.464	0.6415191
358.679	0.64580752
358.895	0.64289862
359.111	0.65710885
359.327	0.63847515
359.543	0.63737381
359.759	0.64183105
359.974	0.64741473
360.19	0.64758766
360.406	0.65310924
360.622	0.64655199
360.838	0.64501107
361.053	0.65337991
361.269	0.6515886
361.485	0.65286139
361.701	0.65460401
361.916	0.64205271
362.132	0.63919566
362.348	0.64625889
362.563	0.64826979
362.779	0.63900489
362.995	0.63903804
363.21	0.6452383
363.426	0.64993854
363.641	0.6519595
363.857	0.65537489
364.073	0.64596484
364.288	0.64036826
364.504	0.65051493
364.719	0.64759746
364.935	0.6465332
365.15	0.64789037
365.366	0.64938864
365.581	0.65676654
365.797	0.65867769
366.012	0.64503996
366.228	0.63752817
366.443	0.64580027
366.658	0.64371395
366.874	0.63380894
367.089	0.63641949
367.305	0.63981584
367.52	0.6425322
367.735	0.64139401
367.951	0.6315063
368.166	0.63356239
368.381	0.64398214
368.597	0.63959924
368.812	0.64182179
369.027	0.64336122
369.243	0.64911477
369.458	0.66160745
369.673	0.66037084
369.888	0.65690337
370.104	0.65021581
370.319	0.65067967
370.534	0.64805983
370.749	0.64276419
370.964	0.64243701
371.179	0.63919594
371.395	0.63351908
371.61	0.63625825
371.825	0.62650911
372.04	0.62412988
372.255	0.62012776
372.47	0.61159343
372.685	0.60504944
372.9	0.60255449
373.115	0.59535281
373.33	0.59662501
373.545	0.59325536
373.76	0.59303757
373.975	0.58826316
374.19	0.58524267
374.405	0.58468724
374.62	0.58849155
374.835	0.59220542
375.05	0.59360615
375.265	0.59216888
375.48	0.59256038
375.695	0.6020091
375.91	0.59805665
376.125	0.58852736
376.339	0.57769922
376.554	0.5743964
376.769	0.57280447
376.984	0.57092901
377.199	0.5674462
377.414	0.56261184
377.628	0.5678594
377.843	0.57055271
378.058	0.56923433
378.273	0.57093996
378.487	0.56906824
378.702	0.56701148
378.917	0.56718306
379.131	0.55950706
379.346	0.55355165
379.561	0.54888374
379.775	0.54143691
379.99	0.53555611
380.205	0.52784854
380.419	0.52347001
380.634	0.51813847
380.848	0.51813545
381.063	0.51540637
381.278	0.51717445
381.492	0.51277173
381.707	0.51413422
381.921	0.51100821
382.136	0.51406252
382.35	0.51014545
382.565	0.50694827
382.779	0.50347934
382.994	0.50276397
383.208	0.49792054
383.422	0.49948568
383.637	0.49527799
383.851	0.49615778
384.066	0.49652727
384.28	0.49430941
384.494	0.49316694
384.709	0.49194018
384.923	0.4887889
385.137	0.48521266
385.352	0.48121348
385.566	0.4785282
385.78	0.4760122
385.995	0.47184579
386.209	0.46844576
386.423	0.46674266
386.637	0.4654047
386.852	0.46120103
387.066	0.45781897
387.28	0.45404132
387.494	0.45489697
387.708	0.45293954
387.923	0.45000446
388.137	0.4492562
388.351	0.44848027
388.565	0.44809258
388.779	0.4473323
388.993	0.44729445
389.207	0.44531599
389.421	0.4441982
389.635	0.44031482
389.85	0.43714513
390.064	0.43427014
390.278	0.43211581
390.492	0.42942352
390.706	0.42782933
390.92	0.42515174
391.134	0.42486809
391.348	0.42693322
391.561	0.42479917
391.775	0.42212464
391.989	0.41759411
392.203	0.41662752
392.417	0.41546719
392.631	0.41440518
392.845	0.40948886
393.059	0.40924716
393.273	0.40669375
393.486	0.40405948
393.7	0.39964817
393.914	0.3985266
394.128	0.39585715
394.342	0.39380593
394.555	0.38888631
394.769	0.38735538
394.983	0.38697633
395.197	0.38730298
395.41	0.38446233
395.624	0.38311831
395.838	0.3812614
396.051	0.38271202
396.265	0.38043205
396.479	0.37888725
396.692	0.37698381
396.906	0.37485157
397.12	0.37267341
397.333	0.37147142
397.547	0.36821435
397.76	0.36697548
397.974	0.36551469
398.187	0.36405039
398.401	0.36306985
398.614	0.36142813
398.828	0.3597004
399.041	0.35849366
399.255	0.3570136
399.468	0.35515305
399.682	0.35350351
399.895	0.35262449
400.109	0.35076747
400.322	0.34944646
400.536	0.34665088
400.749	0.34649701
400.962	0.34495637
401.176	0.34299815
401.389	0.34058396
401.602	0.33804955
401.816	0.33650724
402.029	0.33656123
402.242	0.333985
402.456	0.33261428
402.669	0.33070669
402.882	0.32846403
403.095	0.32874325
403.309	0.32779331
403.522	0.3261516
403.735	0.32467264
403.948	0.3234166
404.161	0.32423074
404.375	0.32360584
404.588	0.32186581
404.801	0.32014957
405.014	0.31842983
405.227	0.31821386
405.44	0.31729048
405.653	0.31552019
405.866	0.31377089
406.079	0.31263383
406.293	0.31145311
406.506	0.31033422
406.719	0.30854035
406.932	0.30689394
407.145	0.30486524
407.358	0.3047348
407.571	0.30292824
407.784	0.30226017
407.996	0.30157634
408.209	0.30043448
408.422	0.29923385
408.635	0.29878861
408.848	0.29766095
409.061	0.29600934
409.274	0.29413774
409.487	0.29245281
409.7	0.29135647
409.912	0.29043849
410.125	0.28906359
410.338	0.28785266
410.551	0.28690044
410.764	0.28620209
410.976	0.28535848
411.189	0.2843225
411.402	0.28282328
411.615	0.28224856
411.827	0.28127878
412.04	0.28118504
412.253	0.28009257
412.465	0.27916649
412.678	0.27800155
412.891	0.27784601
413.103	0.27591099
413.316	0.27458634
413.529	0.27360282
413.741	0.27306706
413.954	0.27233836
414.166	0.27156392
414.379	0.27051025
414.591	0.27030576
414.804	0.26956601
415.016	0.26893547
415.229	0.26807263
415.441	0.26672241
415.654	0.26635527
415.866	0.2655491
416.079	0.26504228
416.291	0.26435262
416.504	0.2635627
416.716	0.26283627
416.928	0.26259715
417.141	0.26157948
417.353	0.26095841
417.566	0.25954496
417.778	0.25880525
417.99	0.25713761
418.203	0.25592833
418.415	0.25494799
418.627	0.25451271
418.839	0.2536845
419.052	0.25372601
419.264	0.25283873
419.476	0.25282489
419.688	0.25244638
419.901	0.25201856
420.113	0.25116094
420.325	0.25037548
420.537	0.24900692
420.749	0.24876496
420.961	0.24824303
421.174	0.24747366
421.386	0.24641623
421.598	0.24543983
421.81	0.24464564
422.022	0.24436834
422.234	0.24359439
422.446	0.24284734
422.658	0.24239612
422.87	0.24223107
423.082	0.24197092
423.294	0.24154452
423.506	0.24111218
423.718	0.24056449
423.93	0.239711
424.142	0.23906294
424.354	0.23823185
424.566	0.23747113
424.778	0.237053
424.99	0.23632226
425.202	0.23553597
425.414	0.23519397
425.625	0.23472614
425.837	0.23401441
426.049	0.23373681
426.261	0.23305584
426.473	0.23236726
426.684	0.23185593
426.896	0.23137274
427.108	0.23063865
427.32	0.2303943
427.531	0.22960164
427.743	0.22907006
427.955	0.22898183
428.167	0.22839405
428.378	0.22801309
428.59	0.22756777
428.802	0.22699717
429.013	0.2264748
429.225	0.22620167
429.436	0.2253697
429.648	0.2255197
429.86	0.22528008
430.071	0.22499592
430.283	0.22472701
430.494	0.22444582
430.706	0.22401733
430.917	0.22370703
431.129	0.22303573
431.34	0.22241449
431.552	0.22196211
431.763	0.22138037
431.975	0.22115901
432.186	0.22051981
432.398	0.22016647
432.609	0.21935459
432.821	0.2190179
433.032	0.21874819
433.243	0.2184576
433.455	0.2179548
433.666	0.21782073
433.877	0.21755494
434.089	0.21731425
434.3	0.2167072
434.511	0.21607746
434.723	0.21561971
434.934	0.21508329
435.145	0.21440254
435.356	0.21390546
435.568	0.21374012
435.779	0.21352237
435.99	0.2131938
436.201	0.21302447
436.412	0.21284376
436.624	0.21268158
436.835	0.21262041
437.046	0.21245402
437.257	0.21220183
437.468	0.21228195
437.679	0.21179546
437.89	0.2114904
438.101	0.211207
438.312	0.21053867
438.523	0.20987419
438.734	0.20960384
438.945	0.2092598
439.156	0.20886777
439.367	0.20859826
439.578	0.20841671
439.789	0.20828614
440	0.20830306
440.211	0.20784359
440.422	0.20750272
440.633	0.20738382
440.844	0.20681445
441.055	0.20635957
441.266	0.206082
441.477	0.20568818
441.687	0.20552283
441.898	0.20509489
442.109	0.20474165
442.32	0.20486604
442.531	0.20460907
442.741	0.20408114
442.952	0.20370478
443.163	0.20344911
443.374	0.20311954
443.584	0.20294512
443.795	0.20245631
444.006	0.20222297
444.216	0.20210157
444.427	0.20191081
444.638	0.20175416
444.848	0.20155929
445.059	0.20134207
445.27	0.20115778
445.48	0.20090476
445.691	0.20072109
445.901	0.20051173
446.112	0.20022215
446.323	0.19985703
446.533	0.19934436
446.744	0.19903711
446.954	0.19877592
447.165	0.19859266
447.375	0.19857966
447.586	0.19847841
447.796	0.1984595
448.006	0.19841597
448.217	0.19831014
448.427	0.19802315
448.638	0.19750724
448.848	0.19679245
449.058	0.19626492
449.269	0.19606654
449.479	0.19570381
449.689	0.19541418
449.9	0.19532847
450.11	0.1952802
450.32	0.19534067
450.531	0.19520612
450.741	0.19489353
450.951	0.19482693
451.161	0.19459769
451.372	0.19432104
451.582	0.1944448
451.792	0.19423176
452.002	0.19410519
452.212	0.19392638
452.422	0.19382288
452.633	0.19351848
452.843	0.19351449
453.053	0.19304928
453.263	0.19292784
453.473	0.19263002
453.683	0.19255857
453.893	0.19237398
454.103	0.19244601
454.313	0.19217297
454.523	0.19200927
454.733	0.1917728
454.943	0.19183147
455.153	0.1917391
455.363	0.19149148
455.573	0.19122521
455.783	0.19106328
455.993	0.19069345
456.203	0.19063561
456.413	0.19051173
456.623	0.19018761
456.833	0.19020267
457.042	0.19012786
457.252	0.19002682
457.462	0.19020408
457.672	0.19002598
457.882	0.18985074
458.091	0.18974295
458.301	0.18946896
458.511	0.18929614
458.721	0.18916699
458.931	0.18910936
459.14	0.18905659
459.35	0.18898059
459.56	0.18900059
459.769	0.18902212
459.979	0.18897052
460.189	0.18884865
460.398	0.18869422
460.608	0.1887957
460.817	0.18870219
461.027	0.18852934
461.237	0.18850957
461.446	0.18855906
461.656	0.18872005
461.865	0.18856718
462.075	0.18835189
462.284	0.18835143
462.494	0.18846373
462.703	0.18821244
462.913	0.18816166
463.122	0.18795214
463.332	0.18791521
463.541	0.18802023
463.751	0.18792626
463.96	0.18777896
464.169	0.18788882
464.379	0.18798454
464.588	0.18802735
464.797	0.18801433
465.007	0.18794114
465.216	0.18789964
465.425	0.18798434
465.635	0.18802679
465.844	0.1878928
466.053	0.18789956
466.263	0.18792151
466.472	0.1879911
466.681	0.18802869
466.89	0.18784263
467.099	0.18780987
467.309	0.18786137
467.518	0.18781192
467.727	0.18788631
467.936	0.18771369
468.145	0.18773839
468.354	0.18789756
468.563	0.18779785
468.772	0.18772544
468.982	0.18775339
469.191	0.18785897
469.4	0.18787246
469.609	0.18788675
469.818	0.18786842
470.027	0.18797942
470.236	0.18797466
470.445	0.18811384
470.654	0.18786221
470.863	0.18783967
471.072	0.18783909
471.28	0.18779404
471.489	0.18786209
471.698	0.18782768
471.907	0.18775596
472.116	0.18793234
472.325	0.18803744
472.534	0.18818305
472.743	0.18818466
472.951	0.18828837
473.16	0.18843165
473.369	0.18844814
473.578	0.1885126
473.786	0.18858464
473.995	0.18855365
474.204	0.18874666
474.413	0.18876453
474.621	0.18888278
474.83	0.18900261
475.039	0.18903634
475.247	0.18908046
475.456	0.18916968
475.665	0.18933188
475.873	0.18938805
476.082	0.18940814
476.291	0.18950062
476.499	0.18967161
476.708	0.18973276
476.916	0.18980778
477.125	0.18982463
477.333	0.1898958
477.542	0.18998331
477.75	0.19004296
477.959	0.19020249
478.167	0.19043797
478.376	0.19052305
478.584	0.1905776
478.793	0.19072733
479.001	0.19084477
479.209	0.19088355
479.418	0.19091782
479.626	0.19097607
479.834	0.19114934
480.043	0.19138795
480.251	0.19146972
480.459	0.1916208
480.668	0.19184497
480.876	0.19190712
481.084	0.19202408
481.293	0.19210821
481.501	0.19217094
481.709	0.19243206
481.917	0.19258044
482.125	0.19277353
482.334	0.19299999
482.542	0.19320445
482.75	0.19342576
482.958	0.19369586
483.166	0.1938104
483.374	0.19400996
483.583	0.19417807
483.791	0.19438651
483.999	0.19444171
484.207	0.19467908
484.415	0.19473917
484.623	0.19490098
484.831	0.19504374
485.039	0.19524048
485.247	0.19532899
485.455	0.19556958
485.663	0.19569238
485.871	0.19588755
486.079	0.1960106
486.287	0.19624646
486.495	0.19638994
486.702	0.19654584
486.91	0.19670038
487.118	0.19689536
487.326	0.19704168
487.534	0.19726445
487.742	0.19745712
487.95	0.19764841
488.157	0.19789386
488.365	0.19810154
488.573	0.19830258
488.781	0.19859468
488.988	0.19889095
489.196	0.19909852
489.404	0.1993495
489.612	0.19966096
489.819	0.19998001
490.027	0.20020005
490.235	0.20045901
490.442	0.20065999
490.65	0.20088872
490.857	0.20111684
491.065	0.20136938
491.273	0.20159124
491.48	0.20184338
491.688	0.20204511
491.895	0.20225867
492.103	0.20248121
492.31	0.2027726
492.518	0.20300524
492.725	0.20328351
492.933	0.20353374
493.14	0.2038038
493.348	0.20414957
493.555	0.20446016
493.763	0.20467797
493.97	0.20495227
494.177	0.20523103
494.385	0.2055751
494.592	0.20584655
494.8	0.20611318
495.007	0.20641296
495.214	0.20670757
495.422	0.20695974
495.629	0.20722232
495.836	0.20751065
496.043	0.20783978
496.251	0.20815417
496.458	0.2084935
496.665	0.20880476
496.872	0.20914957
497.08	0.20951923
497.287	0.20983477
497.494	0.21008822
497.701	0.21036662
497.908	0.21064468
498.115	0.21092395
498.322	0.21112595
498.53	0.21133832
498.737	0.21158264
498.944	0.21189534
499.151	0.212224
499.358	0.21255752
499.565	0.21289012
499.772	0.21329678
499.979	0.21359866
500.186	0.21391285
500.393	0.21422647
500.6	0.21448529
500.807	0.21479853
501.014	0.21510493
501.221	0.21540817
501.427	0.21571414
501.634	0.21605967
501.841	0.21641893
502.048	0.21674978
502.255	0.21699939
502.462	0.21731841
502.669	0.21775141
502.875	0.21815571
503.082	0.21848818
503.289	0.21876797
503.496	0.21909429
503.702	0.21945493
503.909	0.21986774
504.116	0.22009778
504.323	0.22044549
504.529	0.22079733
504.736	0.22118816
504.943	0.22161064
505.149	0.22202687
505.356	0.22245948
505.563	0.22294715
505.769	0.2233333
505.976	0.22364708
506.182	0.22404306
506.389	0.22441365
506.595	0.22479957
506.802	0.22509641
507.008	0.22541666
507.215	0.22586083
507.421	0.22632877
507.628	0.2267114
507.834	0.22713212
508.041	0.22751684
508.247	0.22789148
508.454	0.22831742
508.66	0.22859953
508.866	0.22899899
509.073	0.22945548
509.279	0.2298361
509.486	0.23016933
509.692	0.23052173
509.898	0.23085181
510.105	0.23132152
510.311	0.2316821
510.517	0.23201368
510.723	0.23237715
510.93	0.23277782
511.136	0.23327666
511.342	0.23370433
511.548	0.23410124
511.754	0.23457124
511.961	0.23504926
512.167	0.2354717
512.373	0.23588363
512.579	0.23627458
512.785	0.23675586
512.991	0.23713951
513.197	0.23754015
513.404	0.23797737
513.61	0.23843293
513.816	0.23893251
514.022	0.2394415
514.228	0.23983868
514.434	0.24032352
514.64	0.24072819
514.846	0.24109931
515.052	0.24148948
515.258	0.24192734
515.464	0.24223741
515.669	0.2426884
515.875	0.24308858
516.081	0.24358016
516.287	0.24401376
516.493	0.24450233
516.699	0.2448976
516.905	0.24535316
517.111	0.24573322
517.316	0.24621598
517.522	0.2466296
517.728	0.2471353
517.934	0.24758929
518.139	0.2480377
518.345	0.24845502
518.551	0.24896438
518.757	0.24938927
518.962	0.2498355
519.168	0.25025599
519.374	0.25061326
519.579	0.25105345
519.785	0.25162806
519.991	0.25206373
520.196	0.25249088
520.402	0.25295054
520.607	0.25348916
520.813	0.25407187
521.018	0.25457471
521.224	0.25496958
521.429	0.25548774
521.635	0.25602738
521.84	0.2564862
522.046	0.25691472
522.251	0.25735484
522.457	0.25778508
522.662	0.25826924
522.868	0.25872149
523.073	0.25912323
523.279	0.25964809
523.484	0.26007293
523.689	0.26053999
523.895	0.26106139
524.1	0.2615567
524.305	0.26202019
524.511	0.26255669
524.716	0.2630376
524.921	0.26358575
525.126	0.26407672
525.332	0.26459738
525.537	0.26510187
525.742	0.26563846
525.947	0.2661277
526.153	0.26652689
526.358	0.26698074
526.563	0.26741877
526.768	0.26790533
526.973	0.26827502
527.178	0.26869947
527.383	0.26912644
527.588	0.26959346
527.794	0.27002201
527.999	0.27047096
528.204	0.27089099
528.409	0.27139225
528.614	0.27188208
528.819	0.27233297
529.024	0.27283565
529.229	0.27331551
529.434	0.27388585
529.639	0.27440478
529.843	0.27486513
530.048	0.27529542
530.253	0.27583292
530.458	0.27634439
530.663	0.27684311
530.868	0.27731116
531.073	0.27773484
531.278	0.27820227
531.482	0.27872962
531.687	0.2792181
531.892	0.27971817
532.097	0.28015908
532.302	0.28063958
532.506	0.2811162
532.711	0.28168408
532.916	0.28218123
533.12	0.28258632
533.325	0.28301778
533.53	0.28353237
533.734	0.28396291
533.939	0.28447097
534.144	0.2849086
534.348	0.28539205
534.553	0.28594524
534.757	0.28641568
534.962	0.28694637
535.167	0.28744936
535.371	0.28788067
535.576	0.28842317
535.78	0.28892834
535.985	0.28944027
536.189	0.289924
536.394	0.29040121
536.598	0.29086571
536.803	0.29136919
537.007	0.29181374
537.211	0.29216802
537.416	0.29254076
537.62	0.29299826
537.825	0.29345152
538.029	0.29404185
538.233	0.29454607
538.438	0.29502488
538.642	0.29555006
538.846	0.29610147
539.05	0.29661543
539.255	0.29710806
539.459	0.29751363
539.663	0.29797108
539.867	0.2984438
540.072	0.29892668
540.276	0.29937763
540.48	0.29991486
540.684	0.30035225
540.888	0.30086748
541.092	0.30130545
541.297	0.30179188
541.501	0.30224177
541.705	0.30270818
541.909	0.30313559
542.113	0.30366781
542.317	0.30415555
542.521	0.30467296
542.725	0.30515878
542.929	0.30569587
543.133	0.30617678
543.337	0.30664347
543.541	0.30699969
543.745	0.30737961
543.949	0.30782273
544.153	0.30821709
544.357	0.30859023
544.56	0.30905542
544.764	0.30949325
544.968	0.30993193
545.172	0.3103156
545.376	0.31071505
545.58	0.31117749
545.783	0.31167626
545.987	0.31206825
546.191	0.3124382
546.395	0.31294109
546.598	0.31340883
546.802	0.31390221
547.006	0.31431954
547.21	0.3146647
547.413	0.3151464
547.617	0.31564042
547.821	0.31608693
548.024	0.31654848
548.228	0.31688748
548.431	0.3173015
548.635	0.3177296
548.839	0.31809559
549.042	0.31852872
549.246	0.31884384
549.449	0.31919617
549.653	0.3196263
549.856	0.32000969
550.06	0.32042416
550.263	0.3208532
550.467	0.32118737
550.67	0.32161772
550.874	0.32197267
551.077	0.32235331
551.28	0.32280161
551.484	0.32323745
551.687	0.32361661
551.891	0.32407195
552.094	0.32443514
552.297	0.32486
552.501	0.32529262
552.704	0.32560956
552.907	0.32594105
553.11	0.32632049
553.314	0.32665523
553.517	0.32701044
553.72	0.32742699
553.923	0.32786056
554.127	0.3282742
554.33	0.32858583
554.533	0.32890796
554.736	0.32919812
554.939	0.32957693
555.142	0.32989554
555.345	0.33016681
555.549	0.33052226
555.752	0.33090299
555.955	0.33125176
556.158	0.33173216
556.361	0.33209869
556.564	0.33246429
556.767	0.3328207
556.97	0.33318443
557.173	0.33353308
557.376	0.33394604
557.579	0.3342529
557.782	0.3345827
557.984	0.33490058
558.187	0.33523973
558.39	0.33547839
558.593	0.33580433
558.796	0.33600608
558.999	0.33619987
559.202	0.33651543
559.404	0.33676706
559.607	0.33704952
559.81	0.33732866
560.013	0.33761666
560.216	0.33795113
560.418	0.3383163
560.621	0.33861533
560.824	0.33893768
561.026	0.33926932
561.229	0.33954012
561.432	0.33979966
561.634	0.34005227
561.837	0.34029857
562.04	0.34053679
562.242	0.34078827
562.445	0.34097417
562.647	0.34121785
562.85	0.34141338
563.053	0.34169656
563.255	0.34196096
563.458	0.34224244
563.66	0.34251255
563.863	0.34286182
564.065	0.34311748
