Data from 0_1_mm_pl_60pc_Absorbance__0__16-12-41-139.txt Node

Date: Fri Feb 24 16:12:41 CET 2023
User: Ange
Spectrometer: FLMT08341
Trigger mode: 0
Integration Time (sec): 1.000000E-2
Scans to average: 400
Electric dark correction enabled: true
Nonlinearity correction enabled: false
Boxcar width: 3
XAxis mode: Wavelengths
Number of Pixels in Spectrum: 3648
>>>>>Begin Spectral Data<<<<<
345.271	-0.0341832
345.487	-0.02761801
345.704	-0.01401756
345.921	-0.01713926
346.137	-0.01356263
346.354	-0.00739038
346.571	-0.01492066
346.787	-0.00053392
347.004	0.06450381
347.22	0.04079528
347.437	0.08544802
347.653	0.11360538
347.87	-0.2081508
348.086	-0.25106733
348.303	0.53622416
348.519	0.47963704
348.736	0.48172261
348.952	0.49452516
349.169	0.5098736
349.385	0.54125275
349.601	0.53965863
349.818	0.53352968
350.034	0.52781723
350.251	0.52037352
350.467	0.52521986
350.683	0.50972779
350.9	0.50459143
351.116	0.50163591
351.332	0.49598934
351.549	0.51088571
351.765	0.52712165
351.981	0.53528536
352.197	0.55507499
352.414	0.58004139
352.63	0.59044261
352.846	0.61099395
353.062	0.59755953
353.278	0.58256734
353.495	0.59741741
353.711	0.60001787
353.927	0.5983566
354.143	0.59887172
354.359	0.58625775
354.575	0.58798546
354.792	0.60839708
355.008	0.59564701
355.224	0.59048319
355.44	0.58587483
355.656	0.58251734
355.872	0.59539137
356.088	0.63088991
356.304	0.63232758
356.52	0.63448534
356.736	0.64229757
356.952	0.64768306
357.168	0.64920029
357.384	0.65509634
357.6	0.63004795
357.816	0.64115801
358.032	0.65588914
358.248	0.67341318
358.464	0.6712336
358.679	0.67993899
358.895	0.68062606
359.111	0.69167199
359.327	0.67501902
359.543	0.67676047
359.759	0.6813671
359.974	0.68377759
360.19	0.6844118
360.406	0.68395942
360.622	0.67919905
360.838	0.67680643
361.053	0.67850716
361.269	0.68096243
361.485	0.68570135
361.701	0.69150953
361.916	0.6860097
362.132	0.68846552
362.348	0.69656775
362.563	0.69929968
362.779	0.68862576
362.995	0.69220005
363.21	0.69793831
363.426	0.70109034
363.641	0.70397526
363.857	0.7117729
364.073	0.70483355
364.288	0.69834018
364.504	0.70909655
364.719	0.70820473
364.935	0.70881081
365.15	0.71078454
365.366	0.71029398
365.581	0.72374183
365.797	0.72875333
366.012	0.717227
366.228	0.70464037
366.443	0.71526137
366.658	0.71227028
366.874	0.70073624
367.089	0.70337788
367.305	0.70660887
367.52	0.70672002
367.735	0.70726049
367.951	0.69684502
368.166	0.69911763
368.381	0.71467582
368.597	0.7030943
368.812	0.70784464
369.027	0.71178737
369.243	0.71715175
369.458	0.7376017
369.673	0.74074243
369.888	0.7338746
370.104	0.72915278
370.319	0.72943846
370.534	0.72614779
370.749	0.72542119
370.964	0.72041745
371.179	0.71489907
371.395	0.71098668
371.61	0.71813251
371.825	0.70938967
372.04	0.70913615
372.255	0.7024669
372.47	0.69304369
372.685	0.68586123
372.9	0.68424202
373.115	0.67842149
373.33	0.67729582
373.545	0.67599004
373.76	0.68119232
373.975	0.67705016
374.19	0.67569463
374.405	0.6741678
374.62	0.68044264
374.835	0.68760065
375.05	0.68666051
375.265	0.684677
375.48	0.68662699
375.695	0.69902954
375.91	0.69446417
376.125	0.68133889
376.339	0.66794626
376.554	0.66601491
376.769	0.6630823
376.984	0.65919664
377.199	0.6543212
377.414	0.65173812
377.628	0.65677064
377.843	0.66098923
378.058	0.65898947
378.273	0.66026933
378.487	0.66085421
378.702	0.65874752
378.917	0.65803243
379.131	0.65255938
379.346	0.64310366
379.561	0.63844985
379.775	0.63188211
379.99	0.62470125
380.205	0.61613664
380.419	0.6090221
380.634	0.59938573
380.848	0.6024406
381.063	0.60093929
381.278	0.60326484
381.492	0.59776369
381.707	0.60111974
381.921	0.59924461
382.136	0.60509808
382.35	0.59885886
382.565	0.59260738
382.779	0.58913726
382.994	0.58935498
383.208	0.58184138
383.422	0.58425086
383.637	0.58040535
383.851	0.58265605
384.066	0.58370744
384.28	0.58192174
384.494	0.57971574
384.709	0.58013779
384.923	0.57718361
385.137	0.57043902
385.352	0.56681896
385.566	0.56537841
385.78	0.56159992
385.995	0.55862457
386.209	0.55427481
386.423	0.55382155
386.637	0.55515124
386.852	0.54958478
387.066	0.54485979
387.28	0.54024164
387.494	0.53968666
387.708	0.53734128
387.923	0.53257532
388.137	0.53186205
388.351	0.53135124
388.565	0.53185258
388.779	0.53185328
388.993	0.53273771
389.207	0.53149879
389.421	0.53028173
389.635	0.5254147
389.85	0.52289297
390.064	0.51943629
390.278	0.51653044
390.492	0.51301662
390.706	0.51029562
390.92	0.50731296
391.134	0.50764396
391.348	0.50903964
391.561	0.50537901
391.775	0.50136767
391.989	0.49634668
392.203	0.49576891
392.417	0.49496787
392.631	0.49260275
392.845	0.48667231
393.059	0.48682926
393.273	0.48384583
393.486	0.48041108
393.7	0.47465575
393.914	0.47300545
394.128	0.4698937
394.342	0.46751479
394.555	0.46221366
394.769	0.46102862
394.983	0.46101981
395.197	0.46138296
395.41	0.45835289
395.624	0.45717814
395.838	0.45483395
396.051	0.45619272
396.265	0.45320824
396.479	0.45138298
396.692	0.44867207
396.906	0.44488589
397.12	0.44200599
397.333	0.44141986
397.547	0.43800889
397.76	0.43830645
397.974	0.43644176
398.187	0.43547006
398.401	0.43533029
398.614	0.4333776
398.828	0.43120938
399.041	0.42983539
399.255	0.42654707
399.468	0.42430764
399.682	0.42200852
399.895	0.42078751
400.109	0.41826854
400.322	0.41567778
400.536	0.41213021
400.749	0.412132
400.962	0.4102117
401.176	0.4077827
401.389	0.40498364
401.602	0.40167897
401.816	0.40107465
402.029	0.4004138
402.242	0.39651707
402.456	0.39471733
402.669	0.39216937
402.882	0.38844584
403.095	0.38885688
403.309	0.38655644
403.522	0.38535879
403.735	0.38380554
403.948	0.38218217
404.161	0.38305404
404.375	0.38282844
404.588	0.38144221
404.801	0.37982113
405.014	0.37696974
405.227	0.37682203
405.44	0.37615348
405.653	0.37470128
405.866	0.37237049
406.079	0.3704425
406.293	0.3688986
406.506	0.36756743
406.719	0.36535327
406.932	0.36302262
407.145	0.36041361
407.358	0.36079884
407.571	0.35864547
407.784	0.35730966
407.996	0.35605179
408.209	0.35376158
408.422	0.35164869
408.635	0.35005018
408.848	0.34811056
409.061	0.34630307
409.274	0.34433138
409.487	0.34264147
409.7	0.34203594
409.912	0.34116002
410.125	0.33991135
410.338	0.33823611
410.551	0.33730714
410.764	0.33641379
410.976	0.33559043
411.189	0.33418329
411.402	0.33287099
411.615	0.33186957
411.827	0.33107945
412.04	0.33001227
412.253	0.32881759
412.465	0.32747463
412.678	0.32607869
412.891	0.32521698
413.103	0.32292614
413.316	0.32172855
413.529	0.32106002
413.741	0.31983399
413.954	0.31860576
414.166	0.3177221
414.379	0.31619945
414.591	0.31570129
414.804	0.3137105
415.016	0.3126936
415.229	0.31161652
415.441	0.31024857
415.654	0.30966135
415.866	0.30881832
416.079	0.30822656
416.291	0.30719497
416.504	0.30625344
416.716	0.30543409
416.928	0.30484725
417.141	0.30332592
417.353	0.30258128
417.566	0.30072183
417.778	0.30012638
417.99	0.29812792
418.203	0.29657167
418.415	0.29545293
418.627	0.29469475
418.839	0.29389791
419.052	0.29374901
419.264	0.29288013
419.476	0.29255747
419.688	0.29191388
419.901	0.29096559
420.113	0.29017884
420.325	0.28887677
420.537	0.28780402
420.749	0.28704735
420.961	0.28617724
421.174	0.28526874
421.386	0.28420549
421.598	0.28287304
421.81	0.282008
422.022	0.28078862
422.234	0.27989683
422.446	0.27895837
422.658	0.2780443
422.87	0.27757476
423.082	0.27690204
423.294	0.27607975
423.506	0.27560924
423.718	0.27477527
423.93	0.27351743
424.142	0.27246249
424.354	0.27135676
424.566	0.27042751
424.778	0.26981713
424.99	0.2689441
425.202	0.2678185
425.414	0.26742123
425.625	0.26714848
425.837	0.26606446
426.049	0.26582934
426.261	0.26492433
426.473	0.26413776
426.684	0.26360096
426.896	0.26295596
427.108	0.26206031
427.32	0.26174701
427.531	0.26089177
427.743	0.26016553
427.955	0.25980978
428.167	0.25896336
428.378	0.25818409
428.59	0.25757363
428.802	0.25701911
429.013	0.25614579
429.225	0.2554283
429.436	0.2544915
429.648	0.25431554
429.86	0.25370257
430.071	0.25292526
430.283	0.25234193
430.494	0.25179959
430.706	0.25132872
430.917	0.250807
431.129	0.24993723
431.34	0.24936395
431.552	0.24908726
431.763	0.24828073
431.975	0.2478785
432.186	0.2472889
432.398	0.24660014
432.609	0.24563583
432.821	0.2450991
433.032	0.24428318
433.243	0.24368797
433.455	0.24299465
433.666	0.24243932
433.877	0.24224384
434.089	0.24185555
434.3	0.24119557
434.511	0.24041727
434.723	0.23998859
434.934	0.23918391
435.145	0.23848303
435.356	0.23765281
435.568	0.23715503
435.779	0.23660764
435.99	0.23626352
436.201	0.23575287
436.412	0.23526936
436.624	0.23477309
436.835	0.23441761
437.046	0.23424066
437.257	0.23366773
437.468	0.23322138
437.679	0.23281463
437.89	0.23238867
438.101	0.2320304
438.312	0.23159283
438.523	0.23102572
438.734	0.23088841
438.945	0.23051617
439.156	0.23002011
439.367	0.22992437
439.578	0.22966351
439.789	0.22901285
440	0.22866121
440.211	0.22804053
440.422	0.22778038
440.633	0.2274864
440.844	0.22669701
441.055	0.22605352
441.266	0.22582404
441.477	0.22503018
441.687	0.22469394
441.898	0.22420926
442.109	0.22359434
442.32	0.22332578
442.531	0.22288682
442.741	0.22224449
442.952	0.22208281
443.163	0.22174
443.374	0.22113064
443.584	0.2209173
443.795	0.22063948
444.006	0.22032506
444.216	0.22017843
444.427	0.21967656
444.638	0.21928181
444.848	0.21894349
445.059	0.21846675
445.27	0.21811346
445.48	0.21767592
445.691	0.21728413
445.901	0.21696405
446.112	0.21647586
446.323	0.21614318
446.533	0.21579961
446.744	0.2152618
446.954	0.21488021
447.165	0.2145486
447.375	0.21440724
447.586	0.21434612
447.796	0.21419769
448.006	0.21382975
448.217	0.21368622
448.427	0.21345671
448.638	0.21284681
448.848	0.21220357
449.058	0.21167882
449.269	0.21115425
449.479	0.21075784
449.689	0.21029328
449.9	0.20991696
450.11	0.20968838
450.32	0.20970963
450.531	0.20922105
450.741	0.20885327
450.951	0.20865489
451.161	0.208295
451.372	0.20808754
451.582	0.20809357
451.792	0.20749028
452.002	0.20727475
452.212	0.20685546
452.422	0.20660682
452.633	0.20623821
452.843	0.20589382
453.053	0.20508437
453.263	0.20485802
453.473	0.20450055
453.683	0.20439047
453.893	0.20385575
454.103	0.20379668
454.313	0.20336908
454.523	0.20333419
454.733	0.20322959
454.943	0.20313846
455.153	0.20291737
455.363	0.20273836
455.573	0.20239916
455.783	0.20237087
455.993	0.20203858
456.203	0.20189044
456.413	0.20159673
456.623	0.20124915
456.833	0.20123296
457.042	0.20097333
457.252	0.20075627
457.462	0.20045462
457.672	0.20008223
457.882	0.19989028
458.091	0.19971333
458.301	0.19922423
458.511	0.19899368
458.721	0.19868081
458.931	0.19870334
459.14	0.19840998
459.35	0.19831169
459.56	0.19822214
459.769	0.19815775
459.979	0.19797885
460.189	0.19794606
460.398	0.197693
460.608	0.19764877
460.817	0.1973591
461.027	0.19726112
461.237	0.19710745
461.446	0.19694461
461.656	0.1967815
461.865	0.19674035
462.075	0.19661603
462.284	0.1966158
462.494	0.19646439
462.703	0.1962637
462.913	0.19627416
463.122	0.19614415
463.332	0.1958194
463.541	0.19576254
463.751	0.19553664
463.96	0.19540582
464.169	0.19530117
464.379	0.19527368
464.588	0.19526921
464.797	0.19532977
465.007	0.19509346
465.216	0.19513969
465.425	0.19502827
465.635	0.19494988
465.844	0.19476148
466.053	0.1945645
466.263	0.19442676
466.472	0.1944009
466.681	0.19432457
466.89	0.19421573
467.099	0.19427032
467.309	0.19419306
467.518	0.19411583
467.727	0.19413764
467.936	0.19408333
468.145	0.19385265
468.354	0.19379743
468.563	0.19359508
468.772	0.19343267
468.982	0.19321402
469.191	0.19309479
469.4	0.19292983
469.609	0.19308214
469.818	0.19308804
470.027	0.19319829
470.236	0.19306401
470.445	0.19313045
470.654	0.19303932
470.863	0.19303967
471.072	0.19295748
471.28	0.19281251
471.489	0.19271989
471.698	0.19281237
471.907	0.19278926
472.116	0.19281629
472.325	0.1927491
472.534	0.19264493
472.743	0.1927151
472.951	0.19268349
473.16	0.19259209
473.369	0.19259177
473.578	0.19255557
473.786	0.19259558
473.995	0.19260199
474.204	0.19252555
474.413	0.19241229
474.621	0.19255608
474.83	0.19255988
475.039	0.19258781
475.247	0.19254758
475.456	0.1926225
475.665	0.19273334
475.873	0.19282929
476.082	0.19270733
476.291	0.19274851
476.499	0.19273307
476.708	0.1927735
476.916	0.19271726
477.125	0.19264968
477.333	0.19272812
477.542	0.19278757
477.75	0.19275395
477.959	0.19287343
478.167	0.19289637
478.376	0.1928883
478.584	0.19301576
478.793	0.1929739
479.001	0.1930157
479.209	0.19308122
479.418	0.19305492
479.626	0.19309304
479.834	0.19319868
480.043	0.19326036
480.251	0.19331229
480.459	0.1934658
480.668	0.19354584
480.876	0.19366194
481.084	0.19380722
481.293	0.19386051
481.501	0.19393317
481.709	0.19415735
481.917	0.19425028
482.125	0.19433542
482.334	0.1944558
482.542	0.19460511
482.75	0.1948112
482.958	0.19489957
483.166	0.19500103
483.374	0.19505681
483.583	0.19523021
483.791	0.19531078
483.999	0.1953803
484.207	0.19550816
484.415	0.19571068
484.623	0.19579319
484.831	0.19598654
485.039	0.19608262
485.247	0.19623665
485.455	0.1963143
485.663	0.19634583
485.871	0.19646705
486.079	0.1965187
486.287	0.19668178
486.495	0.19680175
486.702	0.19683816
486.91	0.19700407
487.118	0.19717548
487.326	0.19724044
487.534	0.19743256
487.742	0.19759587
487.95	0.19776173
488.157	0.19796196
488.365	0.19814897
488.573	0.19828868
488.781	0.19844966
488.988	0.19865109
489.196	0.19886502
489.404	0.19911406
489.612	0.19931237
489.819	0.19949723
490.027	0.19976173
490.235	0.19993678
490.442	0.20024946
490.65	0.20040179
490.857	0.20058077
491.065	0.20088512
491.273	0.20113457
491.48	0.20131597
491.688	0.20157895
491.895	0.20168368
492.103	0.20182134
492.31	0.20203728
492.518	0.20219297
492.725	0.20245864
492.933	0.20266043
493.14	0.20291174
493.348	0.20310936
493.555	0.20333853
493.763	0.20355879
493.97	0.2038221
494.177	0.20395903
494.385	0.20416187
494.592	0.20437794
494.8	0.20468378
495.007	0.20499951
495.214	0.20527821
495.422	0.20549397
495.629	0.20580045
495.836	0.20608603
496.043	0.20634754
496.251	0.20656705
496.458	0.20681606
496.665	0.20705341
496.872	0.20731021
497.08	0.20757193
497.287	0.2078398
497.494	0.20811787
497.701	0.20838499
497.908	0.20857525
498.115	0.20879262
498.322	0.2089761
498.53	0.20922361
498.737	0.20945122
498.944	0.2096427
499.151	0.20993811
499.358	0.21027773
499.565	0.21057913
499.772	0.21089916
499.979	0.21116522
500.186	0.21148977
500.393	0.21184386
500.6	0.2120871
500.807	0.21235892
501.014	0.21262265
501.221	0.21296931
501.427	0.21325151
501.634	0.21354937
501.841	0.2138003
502.048	0.21412512
502.255	0.21434568
502.462	0.21466099
502.669	0.21499129
502.875	0.21531299
503.082	0.21565013
503.289	0.21594613
503.496	0.2162422
503.702	0.21660614
503.909	0.21689783
504.116	0.2172326
504.323	0.2176079
504.529	0.21797311
504.736	0.21837276
504.943	0.2187343
505.149	0.2190996
505.356	0.21948361
505.563	0.21982319
505.769	0.22015173
505.976	0.22045052
506.182	0.22083063
506.389	0.22118127
506.595	0.22152587
506.802	0.22186909
507.008	0.22218778
507.215	0.22258455
507.421	0.22298991
507.628	0.22329955
507.834	0.22368869
508.041	0.22405812
508.247	0.22442386
508.454	0.22483846
508.66	0.2251058
508.866	0.22537467
509.073	0.22574852
509.279	0.22605951
509.486	0.22646482
509.692	0.22681983
509.898	0.22713904
510.105	0.22756322
510.311	0.22800889
510.517	0.22843713
510.723	0.22888042
510.93	0.22923559
511.136	0.22967305
511.342	0.23010036
511.548	0.23053948
511.754	0.23094332
511.961	0.23133415
512.167	0.23165378
512.373	0.2320292
512.579	0.23248041
512.785	0.23298319
512.991	0.23331634
513.197	0.23373337
513.404	0.23409505
513.61	0.23455161
513.816	0.2349948
514.022	0.23534855
514.228	0.23561624
514.434	0.2360321
514.64	0.23646433
514.846	0.23689711
515.052	0.23735642
515.258	0.23777692
515.464	0.23812147
515.669	0.23860958
515.875	0.2390937
516.081	0.23946019
516.287	0.23989209
516.493	0.2402897
516.699	0.2407054
516.905	0.24119327
517.111	0.24149429
517.316	0.24185399
517.522	0.242269
517.728	0.24270084
517.934	0.24314099
518.139	0.24358065
518.345	0.24398555
518.551	0.24455401
518.757	0.24500463
518.962	0.2454563
519.168	0.24592072
519.374	0.24629127
519.579	0.24672372
519.785	0.24718567
519.991	0.24763295
520.196	0.24808833
520.402	0.24859855
520.607	0.24904546
520.813	0.24957671
521.018	0.25004165
521.224	0.25047246
521.429	0.25091073
521.635	0.25128221
521.84	0.25163259
522.046	0.25208733
522.251	0.25247354
522.457	0.2528715
522.662	0.25335107
522.868	0.2537994
523.073	0.25432258
523.279	0.25475868
523.484	0.25520323
523.689	0.25571939
523.895	0.25623932
524.1	0.25672156
524.305	0.25712868
524.511	0.2576202
524.716	0.25815898
524.921	0.2586214
525.126	0.259047
525.332	0.25950776
525.537	0.25992963
525.742	0.26042454
525.947	0.2609031
526.153	0.26133439
526.358	0.26180048
526.563	0.26222578
526.768	0.26269666
526.973	0.26323652
527.178	0.26371769
527.383	0.26412157
527.588	0.26460845
527.794	0.26499237
527.999	0.26550482
528.204	0.2658916
528.409	0.26628518
528.614	0.26672295
528.819	0.26717314
529.024	0.26762519
529.229	0.26814201
529.434	0.26858679
529.639	0.26906635
529.843	0.26951845
530.048	0.26998732
530.253	0.27045192
530.458	0.27091809
530.663	0.27130372
530.868	0.27184374
531.073	0.27231367
531.278	0.27277691
531.482	0.27324474
531.687	0.27376895
531.892	0.27423188
532.097	0.27469507
532.302	0.27511644
532.506	0.2755915
532.711	0.27605803
532.916	0.27653611
533.12	0.27698398
533.325	0.27746353
533.53	0.27800856
533.734	0.27848623
533.939	0.278972
534.144	0.27949793
534.348	0.27992886
534.553	0.28038521
534.757	0.28082284
534.962	0.28134681
535.167	0.28181279
535.371	0.28227815
535.576	0.28272841
535.78	0.28324665
535.985	0.28372335
536.189	0.28418587
536.394	0.28467074
536.598	0.28511182
536.803	0.28557691
537.007	0.28604133
537.211	0.28655743
537.416	0.28704221
537.62	0.28747581
537.825	0.28786404
538.029	0.28840662
538.233	0.28885323
538.438	0.28930725
538.642	0.28970589
538.846	0.29013156
539.05	0.29063656
539.255	0.29113073
539.459	0.29153075
539.663	0.29199196
539.867	0.29241985
540.072	0.29290457
540.276	0.29338584
540.48	0.29388233
540.684	0.29437335
540.888	0.29492954
541.092	0.29543164
541.297	0.2959233
541.501	0.29637771
541.705	0.29679152
541.909	0.2971239
542.113	0.29748931
542.317	0.2978725
542.521	0.29830981
542.725	0.29880221
542.929	0.29926785
543.133	0.29978951
543.337	0.30032987
543.541	0.30079616
543.745	0.30123682
543.949	0.30168543
544.153	0.30203613
544.357	0.30236615
544.56	0.30281175
544.764	0.30334608
544.968	0.30379452
545.172	0.30415938
545.376	0.30455099
545.58	0.30503968
545.783	0.30555549
545.987	0.30594365
546.191	0.30624443
546.395	0.30667889
546.598	0.30720882
546.802	0.30765365
547.006	0.30801692
547.21	0.30837288
547.413	0.30879617
547.617	0.30931505
547.821	0.30972824
548.024	0.31016361
548.228	0.31051901
548.431	0.31099868
548.635	0.31145289
548.839	0.31180491
549.042	0.31218759
549.246	0.31254931
549.449	0.31286326
549.653	0.31331247
549.856	0.31368555
550.06	0.31409318
550.263	0.31456148
550.467	0.31491516
550.67	0.31531727
550.874	0.31561518
551.077	0.31595886
551.28	0.31636316
551.484	0.31674189
551.687	0.31710777
551.891	0.31754213
552.094	0.31788473
552.297	0.31836765
552.501	0.31882596
552.704	0.3191783
552.907	0.31949124
553.11	0.31983922
553.314	0.32015587
553.517	0.3205298
553.72	0.32086702
553.923	0.32119703
554.127	0.32152613
554.33	0.32184039
554.533	0.32223261
554.736	0.32252133
554.939	0.32285661
555.142	0.32320304
555.345	0.3235324
555.549	0.32388102
555.752	0.32424155
555.955	0.32451496
556.158	0.32496289
556.361	0.32534711
556.564	0.32568369
556.767	0.32603625
556.97	0.32640868
557.173	0.3268074
557.376	0.32718513
557.579	0.327421
557.782	0.32773135
557.984	0.32804308
558.187	0.32836395
558.39	0.32861843
558.593	0.32891999
558.796	0.32909733
558.999	0.32939697
559.202	0.32965376
559.404	0.32988563
559.607	0.33014357
559.81	0.33042661
560.013	0.33061431
560.216	0.33097136
560.418	0.33126453
560.621	0.3315324
560.824	0.33187918
561.026	0.33217886
561.229	0.33236561
561.432	0.33270184
561.634	0.33289158
561.837	0.33308791
562.04	0.33330455
562.242	0.33356501
562.445	0.33376943
562.647	0.33406737
562.85	0.33423737
563.053	0.33448518
563.255	0.33474448
563.458	0.33508921
563.66	0.33529736
563.863	0.33559098
564.065	0.33580893
