Data from 0_1_mm_pl_20pc_Absorbance__0__16-08-15-032.txt Node

Date: Fri Feb 24 16:08:15 CET 2023
User: Ange
Spectrometer: FLMT08341
Trigger mode: 0
Integration Time (sec): 1.000000E-2
Scans to average: 400
Electric dark correction enabled: true
Nonlinearity correction enabled: false
Boxcar width: 3
XAxis mode: Wavelengths
Number of Pixels in Spectrum: 3648
>>>>>Begin Spectral Data<<<<<
345.271	0.03126701
345.487	0.01500205
345.704	0.00403439
345.921	0.00778475
346.137	0.00417655
346.354	-0.01524559
346.571	-0.02258237
346.787	-0.07398061
347.004	0.04381372
347.22	-0.08941959
347.437	-0.0753814
347.653	0.07451991
347.87	-0.15609854
348.086	-0.64443345
348.303	-0.10161293
348.519	0.35646356
348.736	0.33644
348.952	0.33802976
349.169	0.35071049
349.385	0.36467305
349.601	0.359903
349.818	0.3537069
350.034	0.35322127
350.251	0.35279559
350.467	0.35628888
350.683	0.34591853
350.9	0.34607288
351.116	0.34422475
351.332	0.34260452
351.549	0.34834966
351.765	0.35208472
351.981	0.35585443
352.197	0.36736976
352.414	0.37504925
352.63	0.38046939
352.846	0.38687909
353.062	0.37823321
353.278	0.37253463
353.495	0.37753763
353.711	0.37645591
353.927	0.37630055
354.143	0.37551483
354.359	0.37049388
354.575	0.37107043
354.792	0.37903705
355.008	0.37160064
355.224	0.36835695
355.44	0.36546699
355.656	0.36308295
355.872	0.36808232
356.088	0.38156148
356.304	0.38076563
356.52	0.38224334
356.736	0.3815987
356.952	0.38295918
357.168	0.38333877
357.384	0.38400662
357.6	0.3769199
357.816	0.37845902
358.032	0.38083505
358.248	0.38858514
358.464	0.38676374
358.679	0.38804436
358.895	0.38607763
359.111	0.38644067
359.327	0.37932322
359.543	0.38066319
359.759	0.38142894
359.974	0.38118046
360.19	0.37900426
360.406	0.37883868
360.622	0.37682655
360.838	0.3770118
361.053	0.37788828
361.269	0.37681581
361.485	0.37575664
361.701	0.3757475
361.916	0.3710779
362.132	0.36865761
362.348	0.36993216
362.563	0.36749709
362.779	0.36086864
362.995	0.36100932
363.21	0.36104455
363.426	0.3622299
363.641	0.36079076
363.857	0.35919476
364.073	0.35625993
364.288	0.35521006
364.504	0.35681841
364.719	0.35616194
364.935	0.35283104
365.15	0.35163955
365.366	0.35183948
365.581	0.35314288
365.797	0.35203813
366.012	0.34726598
366.228	0.34297439
366.443	0.34662913
366.658	0.34663823
366.874	0.33988235
367.089	0.33998654
367.305	0.33991287
367.52	0.33823081
367.735	0.3361366
367.951	0.33009755
368.166	0.32937275
368.381	0.33313164
368.597	0.32956396
368.812	0.32968245
369.027	0.33031633
369.243	0.33144424
369.458	0.33609087
369.673	0.3351052
369.888	0.332811
370.104	0.32927412
370.319	0.32830082
370.534	0.32447324
370.749	0.32253107
370.964	0.32029435
371.179	0.31773999
371.395	0.31445194
371.61	0.3145993
371.825	0.30977376
372.04	0.30983665
372.255	0.30814103
372.47	0.30494812
372.685	0.30202936
372.9	0.30136087
373.115	0.29847955
373.33	0.2986634
373.545	0.29620051
373.76	0.29395878
373.975	0.29046818
374.19	0.28789284
374.405	0.28622779
374.62	0.2858781
374.835	0.28551755
375.05	0.28466989
375.265	0.28323844
375.48	0.28271362
375.695	0.28446452
375.91	0.28129182
376.125	0.27854195
376.339	0.2737346
376.554	0.27217438
376.769	0.27033218
376.984	0.26916345
377.199	0.26790298
377.414	0.26782507
377.628	0.26821215
377.843	0.26910147
378.058	0.26715239
378.273	0.26672871
378.487	0.26529352
378.702	0.26321458
378.917	0.26166448
379.131	0.25915036
379.346	0.25649182
379.561	0.25489525
379.775	0.25282072
379.99	0.24963503
380.205	0.24695954
380.419	0.24385681
380.634	0.24035259
380.848	0.23955275
381.063	0.23830993
381.278	0.23815292
381.492	0.23607501
381.707	0.23606612
381.921	0.23517762
382.136	0.23638495
382.35	0.23389702
382.565	0.23221978
382.779	0.230359
382.994	0.22930175
383.208	0.2266308
383.422	0.22632484
383.637	0.22421297
383.851	0.22482806
384.066	0.22418429
384.28	0.22342586
384.494	0.22316239
384.709	0.22199033
384.923	0.22047274
385.137	0.21855188
385.352	0.21694828
385.566	0.21572878
385.78	0.21419071
385.995	0.21217325
386.209	0.21102296
386.423	0.21022937
386.637	0.20974566
386.852	0.20777538
387.066	0.20656612
387.28	0.20479025
387.494	0.20464299
387.708	0.20363366
387.923	0.20220389
388.137	0.20119899
388.351	0.2008606
388.565	0.20006911
388.779	0.19934537
388.993	0.19886952
389.207	0.19802152
389.421	0.19715445
389.635	0.19561891
389.85	0.19383116
390.064	0.19263537
390.278	0.19163222
390.492	0.19026264
390.706	0.1892721
390.92	0.18793066
391.134	0.18741609
391.348	0.18785697
391.561	0.18616263
391.775	0.18515466
391.989	0.18361703
392.203	0.18275066
392.417	0.18227923
392.631	0.18191845
392.845	0.18009207
393.059	0.18008939
393.273	0.17879946
393.486	0.17748625
393.7	0.17568804
393.914	0.1750578
394.128	0.17345997
394.342	0.17243219
394.555	0.17054776
394.769	0.16988234
394.983	0.16958307
395.197	0.16963006
395.41	0.16811123
395.624	0.16742188
395.838	0.16651663
396.051	0.16673043
396.265	0.16559289
396.479	0.16494878
396.692	0.16431637
396.906	0.16364297
397.12	0.16334725
397.333	0.16253132
397.547	0.16126373
397.76	0.16079569
397.974	0.16030415
398.187	0.15944919
398.401	0.15911864
398.614	0.15828295
398.828	0.15794834
399.041	0.15729635
399.255	0.15693039
399.468	0.15597222
399.682	0.15520358
399.895	0.15502016
400.109	0.153702
400.322	0.15289207
400.536	0.15213992
400.749	0.1517838
400.962	0.151269
401.176	0.15033771
401.389	0.1492879
401.602	0.14852749
401.816	0.14822629
402.029	0.14772958
402.242	0.14649154
402.456	0.14578911
402.669	0.14549174
402.882	0.14458021
403.095	0.14482699
403.309	0.14367832
403.522	0.14338423
403.735	0.142897
403.948	0.14260778
404.161	0.14258121
404.375	0.1423313
404.588	0.14155794
404.801	0.14102018
405.014	0.14018682
405.227	0.1400804
405.44	0.13983173
405.653	0.13922011
405.866	0.13847422
406.079	0.13797186
406.293	0.13794834
406.506	0.13733706
406.719	0.13706933
406.932	0.1360986
407.145	0.13506128
407.358	0.13495134
407.571	0.13425605
407.784	0.13394251
407.996	0.13405872
408.209	0.13339867
408.422	0.13267621
408.635	0.13281098
408.848	0.13241128
409.061	0.13173321
409.274	0.13103692
409.487	0.13033646
409.7	0.1299205
409.912	0.13006385
410.125	0.12957483
410.338	0.12905339
410.551	0.12878156
410.764	0.12844095
410.976	0.12813199
411.189	0.12768701
411.402	0.12701757
411.615	0.12695106
411.827	0.12657895
412.04	0.12663179
412.253	0.12633017
412.465	0.12606406
412.678	0.12573366
412.891	0.12573632
413.103	0.12488261
413.316	0.12461864
413.529	0.124229
413.741	0.12418255
413.954	0.12391501
414.166	0.1235832
414.379	0.12306601
414.591	0.12316693
414.804	0.12288351
415.016	0.12268582
415.229	0.12218465
415.441	0.12162768
415.654	0.12148335
415.866	0.12149079
416.079	0.121246
416.291	0.1209595
416.504	0.12074531
416.716	0.12059206
416.928	0.12062291
417.141	0.12012537
417.353	0.11966266
417.566	0.11909142
417.778	0.11876817
417.99	0.11823661
418.203	0.11776735
418.415	0.11750065
418.627	0.11764368
418.839	0.11743917
419.052	0.11755311
419.264	0.11745319
419.476	0.1174608
419.688	0.1176322
419.901	0.11721029
420.113	0.1166201
420.325	0.11647544
420.537	0.11613735
420.749	0.11609204
420.961	0.11597106
421.174	0.11541185
421.386	0.11537703
421.598	0.11520311
421.81	0.11485859
422.022	0.11473742
422.234	0.11444279
422.446	0.1141805
422.658	0.1141392
422.87	0.11406181
423.082	0.11419296
423.294	0.1140785
423.506	0.11370094
423.718	0.11333229
423.93	0.11297619
424.142	0.11247688
424.354	0.1120338
424.566	0.11167717
424.778	0.11148388
424.99	0.11123374
425.202	0.11090241
425.414	0.11071504
425.625	0.11080224
425.837	0.11064508
426.049	0.11067047
426.261	0.11051226
426.473	0.11042409
426.684	0.11029143
426.896	0.11045025
427.108	0.11024769
427.32	0.1102291
427.531	0.10994148
427.743	0.10977192
427.955	0.10990773
428.167	0.10981517
428.378	0.1095702
428.59	0.10942011
428.802	0.10930942
429.013	0.10886318
429.225	0.10897813
429.436	0.10868766
429.648	0.10901212
429.86	0.10903774
430.071	0.10902282
430.283	0.10899383
430.494	0.10915534
430.706	0.1088425
430.917	0.10881974
431.129	0.1085355
431.34	0.10833422
431.552	0.10819483
431.763	0.10807833
431.975	0.10798662
432.186	0.10791392
432.398	0.10786556
432.609	0.10751441
432.821	0.10743594
433.032	0.10747983
433.243	0.10751853
433.455	0.10736422
433.666	0.10742366
433.877	0.1073927
434.089	0.10752591
434.3	0.10739234
434.511	0.10736436
434.723	0.10710444
434.934	0.10704521
435.145	0.10681545
435.356	0.10671843
435.568	0.10646948
435.779	0.10652431
435.99	0.10618804
436.201	0.10618576
436.412	0.10608359
436.624	0.10606927
436.835	0.10600512
437.046	0.10601151
437.257	0.10600536
437.468	0.10607246
437.679	0.1058096
437.89	0.10584981
438.101	0.10579048
438.312	0.10541221
438.523	0.10539861
438.734	0.10516353
438.945	0.1050476
439.156	0.10492276
439.367	0.1048165
439.578	0.10465039
439.789	0.10467016
440	0.10447323
440.211	0.10414273
440.422	0.10403642
440.633	0.10396592
440.844	0.10370011
441.055	0.10357399
441.266	0.1034248
441.477	0.10342868
441.687	0.10359381
441.898	0.10344932
442.109	0.10327991
442.32	0.10334295
442.531	0.10333577
442.741	0.10320575
442.952	0.10312045
443.163	0.1030456
443.374	0.10301568
443.584	0.10326411
443.795	0.10306581
444.006	0.1030295
444.216	0.10289679
444.427	0.10277252
444.638	0.10276033
444.848	0.10275691
445.059	0.1024196
445.27	0.1024161
445.48	0.10238965
445.691	0.10256332
445.901	0.10252495
446.112	0.10229273
446.323	0.1021009
446.533	0.10216274
446.744	0.10221648
446.954	0.10208714
447.165	0.10197781
447.375	0.102192
447.586	0.10219108
447.796	0.10229123
448.006	0.10223383
448.217	0.10219603
448.427	0.10211322
448.638	0.10201842
448.848	0.10171808
449.058	0.10168489
449.269	0.10169529
449.479	0.10167177
449.689	0.10159448
449.9	0.10177913
450.11	0.10188844
450.32	0.1018383
450.531	0.10181478
450.741	0.10170117
450.951	0.10175558
451.161	0.10174254
451.372	0.1015958
451.582	0.10171668
451.792	0.10184577
452.002	0.10194264
452.212	0.10216607
452.422	0.10216357
452.633	0.10228703
452.843	0.10229227
453.053	0.10216351
453.263	0.10208663
453.473	0.10204088
453.683	0.10190978
453.893	0.10176194
454.103	0.10180342
454.313	0.10185635
454.523	0.10182127
454.733	0.10183158
454.943	0.10178983
455.153	0.10187552
455.363	0.10197062
455.573	0.10182654
455.783	0.10178711
455.993	0.10170071
456.203	0.10182152
456.413	0.10195316
456.623	0.10171222
456.833	0.10189368
457.042	0.10204019
457.252	0.10223463
457.462	0.10239601
457.672	0.10241022
457.882	0.102411
458.091	0.10263045
458.301	0.10238018
458.511	0.10228553
458.721	0.10208248
458.931	0.10210066
459.14	0.10216261
459.35	0.10223105
459.56	0.10220073
459.769	0.10237244
459.979	0.10239279
460.189	0.10253788
460.398	0.10253044
460.608	0.10253748
460.817	0.10254184
461.027	0.10261619
461.237	0.10273591
461.446	0.10287748
461.656	0.10301226
461.865	0.10301233
462.075	0.10295796
462.284	0.10304146
462.494	0.1031111
462.703	0.10304784
462.913	0.10308952
463.122	0.10304594
463.332	0.1030657
463.541	0.10323933
463.751	0.10317159
463.96	0.10318439
464.169	0.10333686
464.379	0.10339498
464.588	0.10346206
464.797	0.10362356
465.007	0.10369092
465.216	0.10379015
465.425	0.10389214
465.635	0.10392258
465.844	0.10397961
466.053	0.10404127
466.263	0.10403939
466.472	0.10406816
466.681	0.10418923
466.89	0.10414433
467.099	0.10418281
467.309	0.1041604
467.518	0.10417026
467.727	0.10429907
467.936	0.10429948
468.145	0.10430637
468.354	0.10442543
468.563	0.10449359
468.772	0.10457367
468.982	0.10463363
469.191	0.10476584
469.4	0.10472228
469.609	0.1047397
469.818	0.10479672
470.027	0.10485917
470.236	0.10497436
470.445	0.10511686
470.654	0.10498783
470.863	0.10507063
471.072	0.10515266
471.28	0.10518998
471.489	0.10529243
471.698	0.10536559
471.907	0.10541206
472.116	0.10559285
472.325	0.1057296
472.534	0.10587808
472.743	0.10602146
472.951	0.1061234
473.16	0.10622523
473.369	0.106219
473.578	0.10629853
473.786	0.10644875
473.995	0.10662233
474.204	0.10674647
474.413	0.10691973
474.621	0.10713772
474.83	0.10725886
475.039	0.10741144
475.247	0.10752846
475.456	0.10754936
475.665	0.10769094
475.873	0.10773513
476.082	0.10777586
476.291	0.10796986
476.499	0.10812603
476.708	0.10811595
476.916	0.10831655
477.125	0.10847499
477.333	0.10860854
477.542	0.10866183
477.75	0.10877981
477.959	0.10894195
478.167	0.10920923
478.376	0.10921491
478.584	0.10919174
478.793	0.10938547
479.001	0.10949298
479.209	0.10947596
479.418	0.10949582
479.626	0.10955955
479.834	0.10972127
480.043	0.10994133
480.251	0.10990341
480.459	0.11014358
480.668	0.11040331
480.876	0.1105364
481.084	0.1107285
481.293	0.1108285
481.501	0.11091955
481.709	0.11116864
481.917	0.111284
482.125	0.11140115
482.334	0.11154333
482.542	0.11164759
482.75	0.11187498
482.958	0.11204222
483.166	0.11218278
483.374	0.11235467
483.583	0.11254482
483.791	0.11275542
483.999	0.11288006
484.207	0.11300779
484.415	0.11320135
484.623	0.11331425
484.831	0.11346517
485.039	0.11363939
485.247	0.11371864
485.455	0.11394175
485.663	0.11415177
485.871	0.11434979
486.079	0.11451745
486.287	0.11464945
486.495	0.11481444
486.702	0.11496368
486.91	0.11511162
487.118	0.11523732
487.326	0.1154467
487.534	0.11567194
487.742	0.11590454
487.95	0.11608871
488.157	0.11636846
488.365	0.11652888
488.573	0.1167523
488.781	0.11689844
488.988	0.11713501
489.196	0.1172879
489.404	0.11750698
489.612	0.11769203
489.819	0.11796108
490.027	0.11816048
490.235	0.11832409
490.442	0.11846233
490.65	0.11866647
490.857	0.11886639
491.065	0.11901386
491.273	0.1191461
491.48	0.11929348
491.688	0.11946261
491.895	0.11962789
492.103	0.1197693
492.31	0.11992079
492.518	0.12017017
492.725	0.12040993
492.933	0.12065138
493.14	0.12086676
493.348	0.12112922
493.555	0.12133351
493.763	0.12159254
493.97	0.12181014
494.177	0.12196166
494.385	0.12220632
494.592	0.12246807
494.8	0.12266455
495.007	0.12299066
495.214	0.12317065
495.422	0.12336289
495.629	0.12364326
495.836	0.12383082
496.043	0.1240204
496.251	0.12431364
496.458	0.12452309
496.665	0.12477244
496.872	0.1250041
497.08	0.12524695
497.287	0.12545564
497.494	0.12566086
497.701	0.1258227
497.908	0.12602074
498.115	0.1262583
498.322	0.12648826
498.53	0.12666732
498.737	0.12692671
498.944	0.1272144
499.151	0.12747131
499.358	0.12775958
499.565	0.12795526
499.772	0.12820865
499.979	0.12847045
500.186	0.1286869
500.393	0.12889046
500.6	0.12915059
500.807	0.12936973
501.014	0.1295921
501.221	0.1298408
501.427	0.13005484
501.634	0.13029552
501.841	0.13056843
502.048	0.13075766
502.255	0.13091578
502.462	0.13118422
502.669	0.13140722
502.875	0.1316773
503.082	0.13194793
503.289	0.13213869
503.496	0.13237003
503.702	0.13264942
503.909	0.13294594
504.116	0.13321927
504.323	0.13353728
504.529	0.1337627
504.736	0.13403066
504.943	0.13432106
505.149	0.13463651
505.356	0.13494407
505.563	0.13521486
505.769	0.13545855
505.976	0.13575658
506.182	0.13605567
506.389	0.13639238
506.595	0.13668687
506.802	0.13692981
507.008	0.13722516
507.215	0.13750527
507.421	0.13777773
507.628	0.13804993
507.834	0.13833151
508.041	0.13861309
508.247	0.13883448
508.454	0.13909859
508.66	0.13934107
508.866	0.13963119
509.073	0.13991485
509.279	0.14015949
509.486	0.1403809
509.692	0.14069047
509.898	0.14098193
510.105	0.14130524
510.311	0.14158018
510.517	0.14185072
510.723	0.14208663
510.93	0.1424136
511.136	0.14274989
511.342	0.14307016
511.548	0.14332669
511.754	0.14366888
511.961	0.14399639
512.167	0.14437628
512.373	0.14468027
512.579	0.14496055
512.785	0.14527671
512.991	0.14558381
513.197	0.14590718
513.404	0.14625001
513.61	0.14656446
513.816	0.14685235
514.022	0.14717811
514.228	0.14748264
514.434	0.14781991
514.64	0.14812878
514.846	0.14834009
515.052	0.14859838
515.258	0.14891527
515.464	0.14915337
515.669	0.14947265
515.875	0.14974221
516.081	0.15005071
516.287	0.15043731
516.493	0.15079733
516.699	0.15109249
516.905	0.15145721
517.111	0.15173784
517.316	0.15213629
517.522	0.15240103
517.728	0.15275691
517.934	0.15306182
518.139	0.15338133
518.345	0.15366377
518.551	0.15399141
518.757	0.15425837
518.962	0.15463937
519.168	0.15495611
519.374	0.15524004
519.579	0.15555983
519.785	0.15592557
519.991	0.15624172
520.196	0.15655579
520.402	0.15682492
520.607	0.15715899
520.813	0.15754422
521.018	0.15790681
521.224	0.15820803
521.429	0.1586053
521.635	0.15899213
521.84	0.15934008
522.046	0.15965108
522.251	0.15995754
522.457	0.16026751
522.662	0.16061416
522.868	0.1608859
523.073	0.16117112
523.279	0.16153184
523.484	0.16180274
523.689	0.16210056
523.895	0.16247153
524.1	0.1627946
524.305	0.16319054
524.511	0.16354404
524.716	0.16389837
524.921	0.16431246
525.126	0.16467156
525.332	0.16503592
525.537	0.16542789
525.742	0.16579047
525.947	0.16616929
526.153	0.16649264
526.358	0.16682809
526.563	0.16722348
526.768	0.16753637
526.973	0.16782125
527.178	0.16809979
527.383	0.16836114
527.588	0.168688
527.794	0.16903225
527.999	0.16934112
528.204	0.16966039
528.409	0.17003501
528.614	0.17038068
528.819	0.17073779
529.024	0.17105083
529.229	0.17141544
529.434	0.17176517
529.639	0.17212077
529.843	0.17249539
530.048	0.1728457
530.253	0.17327266
530.458	0.17367949
530.663	0.1739809
530.868	0.17433958
531.073	0.17468495
531.278	0.17497448
531.482	0.17531155
531.687	0.17566814
531.892	0.17600563
532.097	0.17636324
532.302	0.17676679
532.506	0.17713248
532.711	0.17749768
532.916	0.17787687
533.12	0.17814982
533.325	0.17843729
533.53	0.17879284
533.734	0.17907226
533.939	0.17943149
534.144	0.17976571
534.348	0.18010223
534.553	0.18045512
534.757	0.18081693
534.962	0.18120691
535.167	0.18155882
535.371	0.18188463
535.576	0.18224234
535.78	0.18262467
535.985	0.18301926
536.189	0.18334585
536.394	0.18375468
536.598	0.18413036
536.803	0.18448309
537.007	0.18488019
537.211	0.18517664
537.416	0.18548544
537.62	0.18592936
537.825	0.18619495
538.029	0.1865755
538.233	0.18689615
538.438	0.18718833
538.642	0.18753762
538.846	0.1878531
539.05	0.18814088
539.255	0.1884702
539.459	0.18877643
539.663	0.18916532
539.867	0.18955393
540.072	0.1899095
540.276	0.19032402
540.48	0.19070775
540.684	0.19105635
540.888	0.19142919
541.092	0.19175119
541.297	0.19212146
541.501	0.19248574
541.705	0.19279697
541.909	0.19311226
542.113	0.19351596
542.317	0.1938856
542.521	0.19425214
542.725	0.19456271
542.929	0.19491359
543.133	0.19531473
543.337	0.19566662
543.541	0.19595454
543.745	0.19629757
543.949	0.19664586
544.153	0.19697279
544.357	0.1972909
544.56	0.1976702
544.764	0.19805561
544.968	0.198346
545.172	0.19860112
545.376	0.19890844
545.58	0.19925052
545.783	0.19964421
545.987	0.19990478
546.191	0.2001615
546.395	0.20058876
546.598	0.20095859
546.802	0.20129493
547.006	0.2016419
547.21	0.20193301
547.413	0.20230163
547.617	0.20271599
547.821	0.20305159
548.024	0.20345589
548.228	0.20379257
548.431	0.20415671
548.635	0.20447206
548.839	0.20477191
549.042	0.2050882
549.246	0.20533437
549.449	0.20561656
549.653	0.20593263
549.856	0.2061874
550.06	0.20654644
550.263	0.20690481
550.467	0.20713826
550.67	0.20748969
550.874	0.20774649
551.077	0.20807707
551.28	0.2084663
551.484	0.20879066
551.687	0.20905436
551.891	0.20949392
552.094	0.20977255
552.297	0.21010133
552.501	0.21037667
552.704	0.21062218
552.907	0.21083555
553.11	0.21117199
553.314	0.2114543
553.517	0.21177951
553.72	0.21215662
553.923	0.21249319
554.127	0.21280709
554.33	0.2131086
554.533	0.21340029
554.736	0.21363209
554.939	0.21395792
555.142	0.21421179
555.345	0.21451188
555.549	0.21480643
555.752	0.21513697
555.955	0.21538642
556.158	0.21572153
556.361	0.21599611
556.564	0.21628065
556.767	0.21657181
556.97	0.21688893
557.173	0.21716586
557.376	0.2175417
557.579	0.21781626
557.782	0.2181256
557.984	0.21842585
558.187	0.21881294
558.39	0.21908582
558.593	0.21940054
558.796	0.21961467
558.999	0.21985303
559.202	0.22010045
559.404	0.22031606
559.607	0.22045464
559.81	0.22069588
560.013	0.22096578
560.216	0.22125638
560.418	0.221528
560.621	0.22179173
560.824	0.22205955
561.026	0.22241049
561.229	0.22264215
561.432	0.22283139
561.634	0.22303041
561.837	0.22329243
562.04	0.22352827
562.242	0.22377465
562.445	0.22396717
562.647	0.22426543
562.85	0.22447715
563.053	0.22477919
563.255	0.22503609
563.458	0.22532799
563.66	0.22561044
563.863	0.2259172
564.065	0.22609997
