Data from 0_1_mm_pl_90pc_Absorbance__0__16-35-45-189.txt Node

Date: Fri Feb 24 16:35:45 CET 2023
User: Ange
Spectrometer: FLMT08341
Trigger mode: 0
Integration Time (sec): 1.000000E-2
Scans to average: 400
Electric dark correction enabled: true
Nonlinearity correction enabled: false
Boxcar width: 3
XAxis mode: Wavelengths
Number of Pixels in Spectrum: 3648
>>>>>Begin Spectral Data<<<<<
345.271	-0.00083019
345.487	-0.00307671
345.704	0.00169049
345.921	-0.00583161
346.137	0.00167491
346.354	-0.00946096
346.571	-0.00386876
346.787	0.12625013
347.004	-0.13243598
347.22	-0.10494194
347.437	-0.15524485
347.653	-0.10152823
347.87	0.15779206
348.086	-0.04642497
348.303	1.27040527
348.519	0.24348262
348.736	0.26750347
348.952	0.28715608
349.169	0.30120861
349.385	0.31701672
349.601	0.31967653
349.818	0.31854536
350.034	0.32095386
350.251	0.32341049
350.467	0.32799249
350.683	0.32267813
350.9	0.32195714
351.116	0.32170115
351.332	0.32168649
351.549	0.3291451
351.765	0.3414536
351.981	0.34721361
352.197	0.36059634
352.414	0.37541738
352.63	0.38438744
352.846	0.39554681
353.062	0.39417481
353.278	0.3863264
353.495	0.39618469
353.711	0.40164391
353.927	0.4034496
354.143	0.4046464
354.359	0.40116274
354.575	0.40003152
354.792	0.41087819
355.008	0.40349738
355.224	0.39932069
355.44	0.39646656
355.656	0.3983444
355.872	0.40851628
356.088	0.43041946
356.304	0.43471162
356.52	0.44114044
356.736	0.44637695
356.952	0.45252573
357.168	0.45492812
357.384	0.45943534
357.6	0.44890067
357.816	0.45597982
358.032	0.46575444
358.248	0.47910493
358.464	0.48483512
358.679	0.49318534
358.895	0.49448856
359.111	0.50268589
359.327	0.49798401
359.543	0.4999904
359.759	0.50330852
359.974	0.50284644
360.19	0.50087795
360.406	0.50394746
360.622	0.50474497
360.838	0.5029564
361.053	0.50572632
361.269	0.50674436
361.485	0.5090015
361.701	0.51339129
361.916	0.51001378
362.132	0.51195113
362.348	0.51813201
362.563	0.51981903
362.779	0.52049863
362.995	0.52678403
363.21	0.5334505
363.426	0.53742267
363.641	0.53888683
363.857	0.54360991
364.073	0.54236906
364.288	0.53756982
364.504	0.54869027
364.719	0.54877092
364.935	0.55017924
365.15	0.55341031
365.366	0.55642719
365.581	0.56575821
365.797	0.57105945
366.012	0.56104983
366.228	0.55655165
366.443	0.56612404
366.658	0.56746199
366.874	0.56205318
367.089	0.56594841
367.305	0.56822424
367.52	0.57193886
367.735	0.57411247
367.951	0.5672714
368.166	0.56778007
368.381	0.57709436
368.597	0.57036187
368.812	0.57282699
369.027	0.57469336
369.243	0.57757885
369.458	0.58986359
369.673	0.59263892
369.888	0.59410941
370.104	0.59178714
370.319	0.59342282
370.534	0.59054648
370.749	0.59050971
370.964	0.5880922
371.179	0.58681701
371.395	0.58316646
371.61	0.59056057
371.825	0.58661267
372.04	0.58925737
372.255	0.58737743
372.47	0.58366319
372.685	0.58060802
372.9	0.5778583
373.115	0.57198173
373.33	0.57336604
373.545	0.57259189
373.76	0.57528395
373.975	0.57239171
374.19	0.57041075
374.405	0.57325096
374.62	0.57947391
374.835	0.58419848
375.05	0.58504316
375.265	0.58435846
375.48	0.58573802
375.695	0.5945012
375.91	0.59114383
376.125	0.583684
376.339	0.5770508
376.554	0.57668395
376.769	0.57646224
376.984	0.57689952
377.199	0.57581177
377.414	0.57449191
377.628	0.57935207
377.843	0.58217988
378.058	0.58138919
378.273	0.58247802
378.487	0.58154829
378.702	0.58071802
378.917	0.58110435
379.131	0.57740901
379.346	0.57142073
379.561	0.56660767
379.775	0.5636739
379.99	0.55870455
380.205	0.55233998
380.419	0.54762105
380.634	0.5417113
380.848	0.54642948
381.063	0.54747987
381.278	0.55141604
381.492	0.54896058
381.707	0.55314712
381.921	0.55298238
382.136	0.55838876
382.35	0.55163142
382.565	0.54901552
382.779	0.54552508
382.994	0.54670264
383.208	0.54073079
383.422	0.54400654
383.637	0.54150927
383.851	0.54487974
384.066	0.54563896
384.28	0.54494316
384.494	0.54451727
384.709	0.54693262
384.923	0.54359657
385.137	0.53940852
385.352	0.53775864
385.566	0.53697021
385.78	0.53416434
385.995	0.53123711
386.209	0.52740254
386.423	0.52900438
386.637	0.52961229
386.852	0.52485923
387.066	0.52232567
387.28	0.51933691
387.494	0.52033829
387.708	0.51969697
387.923	0.51534426
388.137	0.51463561
388.351	0.5151483
388.565	0.51532363
388.779	0.51546036
388.993	0.51696944
389.207	0.51566756
389.421	0.51470339
389.635	0.51234516
389.85	0.50862196
390.064	0.50674782
390.278	0.50547327
390.492	0.50206398
390.706	0.5015435
390.92	0.49995108
391.134	0.50047045
391.348	0.50330623
391.561	0.50030688
391.775	0.49736616
391.989	0.49325432
392.203	0.49189656
392.417	0.49049818
392.631	0.48870052
392.845	0.48401627
393.059	0.48461306
393.273	0.48242811
393.486	0.47982481
393.7	0.47492696
393.914	0.47437772
394.128	0.47158421
394.342	0.46960052
394.555	0.46415301
394.769	0.46189738
394.983	0.46164228
395.197	0.46192081
395.41	0.45993701
395.624	0.45973441
395.838	0.45777307
396.051	0.45970494
396.265	0.45725026
396.479	0.45572069
396.692	0.45423123
396.906	0.4508704
397.12	0.44735831
397.333	0.44721271
397.547	0.44454181
397.76	0.44447654
397.974	0.44259744
398.187	0.44085416
398.401	0.44024482
398.614	0.43876789
398.828	0.43636478
399.041	0.43407575
399.255	0.43169037
399.468	0.42980925
399.682	0.42758836
399.895	0.4259576
400.109	0.42381782
400.322	0.42079909
400.536	0.41763338
400.749	0.41750674
400.962	0.41624144
401.176	0.41377536
401.389	0.41128308
401.602	0.4079092
401.816	0.40784771
402.029	0.40779312
402.242	0.40452137
402.456	0.4020381
402.669	0.39988342
402.882	0.39702469
403.095	0.39738161
403.309	0.39513261
403.522	0.393384
403.735	0.39163505
403.948	0.39020175
404.161	0.39071496
404.375	0.38996961
404.588	0.38839209
404.801	0.38681332
405.014	0.38419837
405.227	0.38438002
405.44	0.3833817
405.653	0.38197771
405.866	0.37967656
406.079	0.37761058
406.293	0.3756854
406.506	0.37432987
406.719	0.37163065
406.932	0.36953165
407.145	0.36644511
407.358	0.36620837
407.571	0.36379085
407.784	0.36238686
407.996	0.3610288
408.209	0.35840061
408.422	0.35607393
408.635	0.35500754
408.848	0.35329981
409.061	0.35109403
409.274	0.34939153
409.487	0.34774318
409.7	0.34661021
409.912	0.3459704
410.125	0.34416008
410.338	0.3425975
410.551	0.34142636
410.764	0.33995319
410.976	0.3383625
411.189	0.33699656
411.402	0.33471716
411.615	0.33362571
411.827	0.3319835
412.04	0.33113428
412.253	0.32919657
412.465	0.32756415
412.678	0.32627692
412.891	0.32546492
413.103	0.32287236
413.316	0.32069228
413.529	0.31925152
413.741	0.31839984
413.954	0.31707111
414.166	0.31565177
414.379	0.31381137
414.591	0.31296533
414.804	0.3118788
415.016	0.31036231
415.229	0.30847395
415.441	0.30638587
415.654	0.30498545
415.866	0.3037258
416.079	0.30282187
416.291	0.30144337
416.504	0.30062487
416.716	0.29982833
416.928	0.29943524
417.141	0.29787797
417.353	0.29678739
417.566	0.2947736
417.778	0.29338312
417.99	0.29132918
418.203	0.28928261
418.415	0.28740764
418.627	0.28630453
418.839	0.28508616
419.052	0.28417106
419.264	0.28283301
419.476	0.28173422
419.688	0.28066707
419.901	0.2794519
420.113	0.27820126
420.325	0.2764935
420.537	0.27532317
420.749	0.27436964
420.961	0.27339507
421.174	0.27194551
421.386	0.27066913
421.598	0.26910001
421.81	0.26795913
422.022	0.26653341
422.234	0.26514913
422.446	0.26354534
422.658	0.26255634
422.87	0.26140232
423.082	0.2605552
423.294	0.25937962
423.506	0.25833054
423.718	0.25744997
423.93	0.2560869
424.142	0.25475365
424.354	0.25344612
424.566	0.25210609
424.778	0.25106318
424.99	0.24995004
425.202	0.2484696
425.414	0.24757849
425.625	0.24671727
425.837	0.24538579
426.049	0.24433305
426.261	0.24315713
426.473	0.24161886
426.684	0.24051758
426.896	0.23983608
427.108	0.23837963
427.32	0.23768919
427.531	0.23657868
427.743	0.2354147
427.955	0.23480974
428.167	0.23382555
428.378	0.23237168
428.59	0.23159115
428.802	0.23056663
429.013	0.22947891
429.225	0.22846906
429.436	0.22715466
429.648	0.22624209
429.86	0.22550977
430.071	0.2246062
430.283	0.22352266
430.494	0.22240985
430.706	0.22161653
430.917	0.22089977
431.129	0.21992512
431.34	0.21883296
431.552	0.21798291
431.763	0.21711212
431.975	0.21640928
432.186	0.21526066
432.398	0.2142569
432.609	0.21277367
432.821	0.21194485
433.032	0.21091496
433.243	0.20987195
433.455	0.20888458
433.666	0.20819926
433.877	0.20752083
434.089	0.20687069
434.3	0.20563001
434.511	0.20437315
434.723	0.2035338
434.934	0.20258257
435.145	0.20156456
435.356	0.2003598
435.568	0.19958273
435.779	0.19875405
435.99	0.19807705
436.201	0.19719627
436.412	0.19634733
436.624	0.19571614
436.835	0.19499148
437.046	0.19424174
437.257	0.19352731
437.468	0.19288818
437.679	0.19209511
437.89	0.19118858
438.101	0.19015476
438.312	0.18926247
438.523	0.18817483
438.734	0.18739917
438.945	0.18651204
439.156	0.18542709
439.367	0.18472069
439.578	0.18410628
439.789	0.1832468
440	0.18257588
440.211	0.18168926
440.422	0.18076648
440.633	0.18026469
440.844	0.17949541
441.055	0.17849578
441.266	0.17782144
441.477	0.17696699
441.687	0.17607832
441.898	0.17538433
442.109	0.17451336
442.32	0.17358292
442.531	0.17269396
442.741	0.17174143
442.952	0.1710501
443.163	0.17041246
443.374	0.16949619
443.584	0.16866882
443.795	0.16792863
444.006	0.16736163
444.216	0.16653215
444.427	0.16554466
444.638	0.1647458
444.848	0.16402066
445.059	0.16322783
445.27	0.16240714
445.48	0.16149531
445.691	0.16063724
445.901	0.16001752
446.112	0.1591719
446.323	0.15827003
446.533	0.15754318
446.744	0.15668047
446.954	0.15579199
447.165	0.15520047
447.375	0.15457934
447.586	0.15407159
447.796	0.15351719
448.006	0.15271409
448.217	0.15221715
448.427	0.15166407
448.638	0.15094233
448.848	0.15016691
449.058	0.14932967
449.269	0.14871432
449.479	0.14800176
449.689	0.14727121
449.9	0.14647325
450.11	0.14584387
450.32	0.14523208
450.531	0.14451284
450.741	0.14375928
450.951	0.14327519
451.161	0.14266684
451.372	0.14218655
451.582	0.14184769
451.792	0.14102137
452.002	0.14044477
452.212	0.13976126
452.422	0.13906042
452.633	0.138285
452.843	0.13769072
453.053	0.13661452
453.263	0.13611076
453.473	0.13538772
453.683	0.13492553
453.893	0.13423889
454.103	0.13380297
454.313	0.13313654
454.523	0.13258281
454.733	0.13199851
454.943	0.13150833
455.153	0.13095129
455.363	0.13046405
455.573	0.12990416
455.783	0.12943083
455.993	0.12884595
456.203	0.12837821
456.413	0.12784984
456.623	0.12705799
456.833	0.12649376
457.042	0.12573771
457.252	0.12512257
457.462	0.12462652
457.672	0.12405455
457.882	0.12337278
458.091	0.12300899
458.301	0.12232384
458.511	0.12203547
458.721	0.12145631
458.931	0.12101963
459.14	0.12043923
459.35	0.12016995
459.56	0.11972214
459.769	0.119408
459.979	0.11880201
460.189	0.1183383
460.398	0.1177947
460.608	0.11736002
460.817	0.11664248
461.027	0.11617087
461.237	0.11559509
461.446	0.11505473
461.656	0.1146463
461.865	0.1141431
462.075	0.11361918
462.284	0.11323495
462.494	0.11264049
462.703	0.11219588
462.913	0.11169648
463.122	0.11104891
463.332	0.11057127
463.541	0.11022078
463.751	0.10967028
463.96	0.10914132
464.169	0.10872838
464.379	0.10850696
464.588	0.10820104
464.797	0.1077379
465.007	0.10717196
465.216	0.10673806
465.425	0.10631127
465.635	0.10588448
465.844	0.10526409
466.053	0.10477656
466.263	0.10442385
466.472	0.10396086
466.681	0.10373603
466.89	0.10328464
467.099	0.10277181
467.309	0.10225503
467.518	0.10191359
467.727	0.1013991
467.936	0.10109794
468.145	0.10061585
468.354	0.10023274
468.563	0.09971851
468.772	0.09940008
468.982	0.09889578
469.191	0.09846421
469.4	0.09791498
469.609	0.09744488
469.818	0.09705048
470.027	0.09674605
470.236	0.09622853
470.445	0.09591783
470.654	0.0954993
470.863	0.09515818
471.072	0.09478103
471.28	0.09442402
471.489	0.09409998
471.698	0.09383835
471.907	0.09341026
472.116	0.09307902
472.325	0.09265942
472.534	0.0922378
472.743	0.09189516
472.951	0.09148203
473.16	0.09110449
473.369	0.09069488
473.578	0.09034041
473.786	0.09015082
473.995	0.08983172
474.204	0.08952201
474.413	0.08921311
474.621	0.08887542
474.83	0.08859871
475.039	0.08824962
475.247	0.08787873
475.456	0.08758436
475.665	0.08721627
475.873	0.0868236
476.082	0.08656715
476.291	0.08625679
476.499	0.08608567
476.708	0.08570977
476.916	0.08543737
477.125	0.08514588
477.333	0.08485487
477.542	0.08453204
477.75	0.08417419
477.959	0.08375292
478.167	0.08354386
478.376	0.08322719
478.584	0.0828535
478.793	0.08261667
479.001	0.0821733
479.209	0.08193148
479.418	0.08161168
479.626	0.08122004
479.834	0.08088358
480.043	0.08060374
480.251	0.08024962
480.459	0.08003926
480.668	0.07975263
480.876	0.07956322
481.084	0.07935742
481.293	0.07912234
481.501	0.0788547
481.709	0.07870683
481.917	0.07852092
482.125	0.07827315
482.334	0.0780108
482.542	0.07777182
482.75	0.07751053
482.958	0.07729828
483.166	0.07693321
483.374	0.07666132
483.583	0.07638867
483.791	0.07616213
483.999	0.07583935
484.207	0.07570678
484.415	0.07549846
484.623	0.07530782
484.831	0.0750977
485.039	0.07488927
485.247	0.07467624
485.455	0.07449634
485.663	0.07412073
485.871	0.07394236
486.079	0.07372049
486.287	0.0734414
486.495	0.07317391
486.702	0.07289994
486.91	0.07264774
487.118	0.07244772
487.326	0.07217549
487.534	0.07198588
487.742	0.07184521
487.95	0.07169909
488.157	0.07156673
488.365	0.0714048
488.573	0.07125097
488.781	0.07110118
488.988	0.0709447
489.196	0.0707603
489.404	0.07056743
489.612	0.07038832
489.819	0.07028657
490.027	0.07007936
490.235	0.06982888
490.442	0.06961391
490.65	0.06939358
490.857	0.06924767
491.065	0.06900474
491.273	0.06878263
491.48	0.06864983
491.688	0.06854006
491.895	0.06839202
492.103	0.06826519
492.31	0.06813613
492.518	0.068016
492.725	0.06788697
492.933	0.06768097
493.14	0.06745048
493.348	0.06730414
493.555	0.0671118
493.763	0.0669528
493.97	0.06682751
494.177	0.06661518
494.385	0.06654115
494.592	0.06640416
494.8	0.06618409
495.007	0.06604132
495.214	0.06580034
495.422	0.06559675
495.629	0.0654362
495.836	0.06522269
496.043	0.06511994
496.251	0.06504185
496.458	0.06490897
496.665	0.06492102
496.872	0.06482369
497.08	0.06470876
497.287	0.06463279
497.494	0.06455605
497.701	0.06441989
497.908	0.06435784
498.115	0.06418175
498.322	0.06406762
498.53	0.0639612
498.737	0.06381717
498.944	0.06372633
499.151	0.06360988
499.358	0.06345074
499.565	0.06337155
499.772	0.06325776
499.979	0.06320754
500.186	0.06317165
500.393	0.0630384
500.6	0.0629536
500.807	0.06289027
501.014	0.06277166
501.221	0.06268428
501.427	0.06261476
501.634	0.0625107
501.841	0.062418
502.048	0.06229383
502.255	0.06221031
502.462	0.06213126
502.669	0.06206117
502.875	0.0619473
503.082	0.06185765
503.289	0.06170417
503.496	0.06166629
503.702	0.0615364
503.909	0.06142766
504.116	0.06134733
504.323	0.06126537
504.529	0.06119582
504.736	0.06121697
504.943	0.06115227
505.149	0.06109284
505.356	0.06103901
505.563	0.06094291
505.769	0.06087378
505.976	0.06077657
506.182	0.06067865
506.389	0.06055114
506.595	0.06054327
506.802	0.06051404
507.008	0.06047956
507.215	0.06041716
507.421	0.06040902
507.628	0.06040587
507.834	0.06045779
508.041	0.06037437
508.247	0.06032796
508.454	0.06031257
508.66	0.06028897
508.866	0.06025612
509.073	0.06020793
509.279	0.06013731
509.486	0.06012202
509.692	0.06013623
509.898	0.06010344
510.105	0.06008845
510.311	0.06003886
510.517	0.05998634
510.723	0.05996455
510.93	0.05991791
511.136	0.05984071
511.342	0.05981877
511.548	0.05978105
511.754	0.05975457
511.961	0.05973533
512.167	0.05973989
512.373	0.05971514
512.579	0.0596989
512.785	0.05967576
512.991	0.05966593
513.197	0.05965501
513.404	0.0596465
513.61	0.05961411
513.816	0.05968609
514.022	0.05969863
514.228	0.05967878
514.434	0.0596854
514.64	0.05964399
514.846	0.05960542
515.052	0.05959469
515.258	0.0595522
515.464	0.05951053
515.669	0.05952867
515.875	0.05949746
516.081	0.05950764
516.287	0.05953039
516.493	0.05953442
516.699	0.0594865
516.905	0.05947216
517.111	0.05941499
517.316	0.0593694
517.522	0.05938203
517.728	0.05935524
517.934	0.05930604
518.139	0.05932183
518.345	0.05932029
518.551	0.05936464
518.757	0.05938821
518.962	0.05942608
519.168	0.05943177
519.374	0.0595007
519.579	0.05957668
519.785	0.0596204
519.991	0.05960683
520.196	0.0596596
520.402	0.05963341
520.607	0.05965645
520.813	0.05966119
521.018	0.05962702
521.224	0.05965502
521.429	0.05971376
521.635	0.05970345
521.84	0.05976807
522.046	0.05980922
522.251	0.0598411
522.457	0.05988038
522.662	0.05991628
522.868	0.05995082
523.073	0.06000349
523.279	0.05999942
523.484	0.06002798
523.689	0.06004068
523.895	0.06008512
524.1	0.06010526
524.305	0.06012045
524.511	0.06017966
524.716	0.06021645
524.921	0.06027125
525.126	0.06033708
525.332	0.06035539
525.537	0.06038286
525.742	0.06042158
525.947	0.06039641
526.153	0.06047954
526.358	0.06050849
526.563	0.06049816
526.768	0.06051335
526.973	0.06054963
527.178	0.06058641
527.383	0.06063268
527.588	0.06065108
527.794	0.06069405
527.999	0.06077966
528.204	0.06083982
528.409	0.0608448
528.614	0.06088697
528.819	0.06090604
529.024	0.06091044
529.229	0.06094193
529.434	0.0609163
529.639	0.06095763
529.843	0.06102051
530.048	0.06102578
530.253	0.06112755
530.458	0.06120266
530.663	0.06126717
530.868	0.06136664
531.073	0.06140943
531.278	0.06148759
531.482	0.06156345
531.687	0.06162132
531.892	0.06165603
532.097	0.06164585
532.302	0.06170024
532.506	0.06179415
532.711	0.06180901
532.916	0.0618415
533.12	0.06188584
533.325	0.06191661
533.53	0.06198444
533.734	0.06199553
533.939	0.0619569
534.144	0.06200503
534.348	0.06206399
534.553	0.06211948
534.757	0.06220665
534.962	0.06227102
535.167	0.06236617
535.371	0.06247735
535.576	0.06257459
535.78	0.0626313
535.985	0.06265299
536.189	0.06272696
536.394	0.06277248
536.598	0.06278484
536.803	0.06278801
537.007	0.06282347
537.211	0.06292275
537.416	0.06298235
537.62	0.06303302
537.825	0.06308345
538.029	0.06320024
538.233	0.06329361
538.438	0.06336843
538.642	0.063391
538.846	0.06345287
539.05	0.06349901
539.255	0.06357128
539.459	0.06360606
539.663	0.06363991
539.867	0.06366125
540.072	0.06374225
540.276	0.06381007
540.48	0.0638672
540.684	0.06388632
540.888	0.06389343
541.092	0.06396047
541.297	0.06403337
541.501	0.06405661
541.705	0.06407248
541.909	0.06407596
542.113	0.06415628
542.317	0.06423434
542.521	0.06435952
542.725	0.06442995
542.929	0.06449432
543.133	0.06461524
543.337	0.06473019
543.541	0.06483299
543.745	0.06492436
543.949	0.06494934
544.153	0.06500065
544.357	0.06507917
544.56	0.06514008
544.764	0.06520669
544.968	0.06523672
545.172	0.06525434
545.376	0.06526816
545.58	0.06529568
545.783	0.06535821
545.987	0.06540335
546.191	0.06542126
546.395	0.06548541
546.598	0.06559873
546.802	0.06568254
547.006	0.06577604
547.21	0.06581287
547.413	0.06586823
547.617	0.06593583
547.821	0.06602012
548.024	0.06605073
548.228	0.06605805
548.431	0.06610279
548.635	0.06615327
548.839	0.0662157
549.042	0.06629126
549.246	0.06633701
549.449	0.06638659
549.653	0.06650794
549.856	0.06655143
550.06	0.06657853
550.263	0.06661083
550.467	0.06663384
550.67	0.06665292
550.874	0.0666927
551.077	0.06672732
551.28	0.06680282
551.484	0.06686938
551.687	0.0668866
551.891	0.06694513
552.094	0.06697763
552.297	0.06704077
552.501	0.06709571
552.704	0.06709908
552.907	0.06715405
553.11	0.06724013
553.314	0.06732746
553.517	0.06741276
553.72	0.0674684
553.923	0.06756996
554.127	0.06765145
554.33	0.06765947
554.533	0.06770322
554.736	0.06766234
554.939	0.06769052
555.142	0.06773682
555.345	0.06770303
555.549	0.067718
555.752	0.06780469
555.955	0.06786454
556.158	0.06801375
556.361	0.06808132
556.564	0.0681228
556.767	0.06820016
556.97	0.06831646
557.173	0.06837071
557.376	0.06836228
557.579	0.06836266
557.782	0.06838432
557.984	0.0684334
558.187	0.06842456
558.39	0.06835638
558.593	0.06837149
558.796	0.06842556
558.999	0.06843728
559.202	0.0684606
559.404	0.06847089
559.607	0.06854933
559.81	0.06864785
560.013	0.06868563
560.216	0.06875254
560.418	0.06877279
560.621	0.06879155
560.824	0.06879171
561.026	0.06883729
561.229	0.06879688
561.432	0.06881707
561.634	0.06881814
561.837	0.06890747
562.04	0.06897004
562.242	0.06904857
562.445	0.06906733
562.647	0.06913701
562.85	0.06916726
563.053	0.06918139
563.255	0.06915008
563.458	0.06918558
563.66	0.06919973
563.863	0.06925687
