Data from 0_1_mm_pl_70pc_Absorbance__0__16-34-36-370.txt Node

Date: Fri Feb 24 16:34:36 CET 2023
User: Ange
Spectrometer: FLMT08341
Trigger mode: 0
Integration Time (sec): 1.000000E-2
Scans to average: 400
Electric dark correction enabled: true
Nonlinearity correction enabled: false
Boxcar width: 3
XAxis mode: Wavelengths
Number of Pixels in Spectrum: 3648
>>>>>Begin Spectral Data<<<<<
345.271	0.00067502
345.487	-0.00190984
345.704	-0.00468505
345.921	-0.00270526
346.137	-0.01723617
346.354	-0.03755683
346.571	-0.0787635
346.787	0.00059495
347.004	-0.01557171
347.22	-0.05247656
347.437	-0.08944999
347.653	-0.13586363
347.87	0.04511139
348.086	1.40617836
348.303	0.26221883
348.519	0.36252746
348.736	0.36958835
348.952	0.37494982
349.169	0.38974642
349.385	0.40805007
349.601	0.40940671
349.818	0.41033692
350.034	0.40997711
350.251	0.41089461
350.467	0.41698607
350.683	0.41136528
350.9	0.41246807
351.116	0.40733983
351.332	0.40121752
351.549	0.4117235
351.765	0.42395709
351.981	0.43061813
352.197	0.44479767
352.414	0.45788638
352.63	0.4689142
352.846	0.48286234
353.062	0.47601114
353.278	0.46618477
353.495	0.47582636
353.711	0.47707525
353.927	0.48214952
354.143	0.48199586
354.359	0.47398664
354.575	0.47346517
354.792	0.4849532
355.008	0.475904
355.224	0.46931545
355.44	0.46148077
355.656	0.46122889
355.872	0.4725116
356.088	0.49733719
356.304	0.50183849
356.52	0.50643111
356.736	0.5149143
356.952	0.52189835
357.168	0.52348514
357.384	0.52773045
357.6	0.51386798
357.816	0.51960652
358.032	0.52750089
358.248	0.53922353
358.464	0.54215451
358.679	0.54827165
358.895	0.5498059
359.111	0.55729037
359.327	0.54824958
359.543	0.55153208
359.759	0.56035205
359.974	0.55914997
360.19	0.55677211
360.406	0.55763627
360.622	0.55463924
360.838	0.55147089
361.053	0.5534006
361.269	0.55129023
361.485	0.55442945
361.701	0.56015386
361.916	0.55314198
362.132	0.55492252
362.348	0.55907964
362.563	0.55859953
362.779	0.55185135
362.995	0.554115
363.21	0.55638842
363.426	0.56148825
363.641	0.56117444
363.857	0.56691218
364.073	0.56490769
364.288	0.56131337
364.504	0.57059878
364.719	0.57016668
364.935	0.56886132
365.15	0.56919399
365.366	0.56818822
365.581	0.57358172
365.797	0.57703551
366.012	0.56860996
366.228	0.56229254
366.443	0.56861851
366.658	0.56834995
366.874	0.5638181
367.089	0.56862687
367.305	0.56758674
367.52	0.56629462
367.735	0.56612785
367.951	0.56056624
368.166	0.56139052
368.381	0.56917303
368.597	0.56059176
368.812	0.5664811
369.027	0.57031937
369.243	0.57133884
369.458	0.58219654
369.673	0.57983881
369.888	0.57818696
370.104	0.57514678
370.319	0.57277474
370.534	0.56752176
370.749	0.56682021
370.964	0.56293952
371.179	0.56279398
371.395	0.55827087
371.61	0.56058901
371.825	0.55464938
372.04	0.55444962
372.255	0.5519433
372.47	0.54552629
372.685	0.54083099
372.9	0.5386756
373.115	0.53287736
373.33	0.53475624
373.545	0.53362699
373.76	0.53342355
373.975	0.53051329
374.19	0.52742612
374.405	0.52642636
374.62	0.53029172
374.835	0.53202547
375.05	0.53080794
375.265	0.52929992
375.48	0.52948262
375.695	0.53586054
375.91	0.53240601
376.125	0.52528323
376.339	0.5150178
376.554	0.51335885
376.769	0.51014
376.984	0.50830829
377.199	0.50587901
377.414	0.50444239
377.628	0.50846966
377.843	0.51170208
378.058	0.51058989
378.273	0.51222155
378.487	0.51111557
378.702	0.50810434
378.917	0.50553381
379.131	0.49891263
379.346	0.49198389
379.561	0.48690216
379.775	0.48165919
379.99	0.47725003
380.205	0.47237976
380.419	0.46831883
380.634	0.46421566
380.848	0.46635621
381.063	0.46534849
381.278	0.46830049
381.492	0.46424991
381.707	0.46542907
381.921	0.46336477
382.136	0.46526831
382.35	0.46003497
382.565	0.4566212
382.779	0.45415473
382.994	0.45429231
383.208	0.44923367
383.422	0.4499252
383.637	0.44694453
383.851	0.44817062
384.066	0.44914434
384.28	0.44675539
384.494	0.44368682
384.709	0.44444131
384.923	0.44304786
385.137	0.43914624
385.352	0.43611569
385.566	0.43484768
385.78	0.43186708
385.995	0.42977344
386.209	0.42605195
386.423	0.42527145
386.637	0.42485718
386.852	0.42197736
387.066	0.41826698
387.28	0.41494638
387.494	0.41531772
387.708	0.41413541
387.923	0.41053039
388.137	0.40964935
388.351	0.40877632
388.565	0.40809833
388.779	0.4080352
388.993	0.40797521
389.207	0.40608588
389.421	0.40470662
389.635	0.40182017
389.85	0.39821496
390.064	0.3963787
390.278	0.39416917
390.492	0.39146796
390.706	0.39051375
390.92	0.38820839
391.134	0.38733814
391.348	0.38897218
391.561	0.38598687
391.775	0.3831779
391.989	0.37924403
392.203	0.37759152
392.417	0.37644289
392.631	0.37576133
392.845	0.37200326
393.059	0.37203908
393.273	0.37049611
393.486	0.36820342
393.7	0.36470858
393.914	0.36408759
394.128	0.36159141
394.342	0.35982167
394.555	0.35631311
394.769	0.35437617
394.983	0.35414732
395.197	0.35362445
395.41	0.35060468
395.624	0.34868004
395.838	0.34689297
396.051	0.34791454
396.265	0.34579255
396.479	0.34413334
396.692	0.34233065
396.906	0.34047033
397.12	0.3390903
397.333	0.33889564
397.547	0.33592096
397.76	0.33572679
397.974	0.33417111
398.187	0.33324933
398.401	0.33296998
398.614	0.33131424
398.828	0.32891895
399.041	0.32716574
399.255	0.32507303
399.468	0.32340779
399.682	0.32156856
399.895	0.3200257
400.109	0.31804614
400.322	0.31636139
400.536	0.31431069
400.749	0.31401272
400.962	0.31319724
401.176	0.31123048
401.389	0.30898816
401.602	0.30700795
401.816	0.30641607
402.029	0.30571252
402.242	0.30320821
402.456	0.30141639
402.669	0.29935789
402.882	0.29740816
403.095	0.29754359
403.309	0.2954864
403.522	0.29433135
403.735	0.29317086
403.948	0.29158667
404.161	0.29222176
404.375	0.29113605
404.588	0.28982137
404.801	0.28881569
405.014	0.28704625
405.227	0.28621637
405.44	0.28571518
405.653	0.28448506
405.866	0.28313419
406.079	0.2813822
406.293	0.27999781
406.506	0.27854832
406.719	0.27743584
406.932	0.27617238
407.145	0.27410341
407.358	0.27353811
407.571	0.27146864
407.784	0.27036871
407.996	0.26945658
408.209	0.26745442
408.422	0.26565729
408.635	0.26500728
408.848	0.26385391
409.061	0.26229719
409.274	0.26101825
409.487	0.25980947
409.7	0.25887079
409.912	0.25792223
410.125	0.25656031
410.338	0.25542466
410.551	0.25499362
410.764	0.25401125
410.976	0.25313784
411.189	0.25237246
411.402	0.25145001
411.615	0.25047978
411.827	0.24955035
412.04	0.24858229
412.253	0.24737263
412.465	0.24642124
412.678	0.24542301
412.891	0.24476659
413.103	0.24321749
413.316	0.2420231
413.529	0.24141791
413.741	0.24061706
413.954	0.23961952
414.166	0.23849764
414.379	0.23700262
414.591	0.23646969
414.804	0.23514826
415.016	0.23390834
415.229	0.23290399
415.441	0.23153573
415.654	0.23052036
415.866	0.22972037
416.079	0.22888016
416.291	0.22828622
416.504	0.22782527
416.716	0.22713831
416.928	0.22667394
417.141	0.22591068
417.353	0.22538626
417.566	0.22419326
417.778	0.22337482
417.99	0.22194002
418.203	0.22083032
418.415	0.21996579
418.627	0.21920683
418.839	0.2179446
419.052	0.21768936
419.264	0.21677603
419.476	0.21636623
419.688	0.21569134
419.901	0.21482519
420.113	0.21399057
420.325	0.2133829
420.537	0.21226762
420.749	0.21205667
420.961	0.21129634
421.174	0.21030144
421.386	0.20930936
421.598	0.20862986
421.81	0.20804055
422.022	0.20728655
422.234	0.20624856
422.446	0.20538729
422.658	0.2048577
422.87	0.20422725
423.082	0.20348222
423.294	0.20256427
423.506	0.20193327
423.718	0.20112612
423.93	0.20041536
424.142	0.19955507
424.354	0.19878325
424.566	0.19814239
424.778	0.1972897
424.99	0.19641262
425.202	0.19587004
425.414	0.19507464
425.625	0.19473804
425.837	0.19391176
426.049	0.19334217
426.261	0.19271789
426.473	0.19202784
426.684	0.19110112
426.896	0.19078399
427.108	0.18975705
427.32	0.18934556
427.531	0.1884297
427.743	0.18791659
427.955	0.18753233
428.167	0.18705597
428.378	0.18630848
428.59	0.18582219
428.802	0.1851831
429.013	0.18456297
429.225	0.18404211
429.436	0.18336417
429.648	0.18305121
429.86	0.18261055
430.071	0.18219291
430.283	0.18170728
430.494	0.1813469
430.706	0.18070532
430.917	0.18014022
431.129	0.17975466
431.34	0.17932719
431.552	0.17890775
431.763	0.17842344
431.975	0.17798059
432.186	0.17752323
432.398	0.17722147
432.609	0.17617654
432.821	0.17562708
433.032	0.17492286
433.243	0.17444644
433.455	0.17388413
433.666	0.17341665
433.877	0.17307973
434.089	0.17243928
434.3	0.17178037
434.511	0.17116616
434.723	0.17064571
434.934	0.16997369
435.145	0.1695129
435.356	0.16883556
435.568	0.16865031
435.779	0.16820644
435.99	0.16785805
436.201	0.16757733
436.412	0.16729957
436.624	0.16707793
436.835	0.16674159
437.046	0.16627919
437.257	0.16576794
437.468	0.16545202
437.679	0.16489729
437.89	0.16453745
438.101	0.16383764
438.312	0.163312
438.523	0.16292313
438.734	0.16261609
438.945	0.16225768
439.156	0.1617272
439.367	0.16126642
439.578	0.16108643
439.789	0.16062216
440	0.16019862
440.211	0.15975111
440.422	0.1594405
440.633	0.15915613
440.844	0.15852354
441.055	0.1578546
441.266	0.15755188
441.477	0.15711485
441.687	0.15667973
441.898	0.15615296
442.109	0.15567114
442.32	0.15535095
442.531	0.15498707
442.741	0.15447772
442.952	0.15389788
443.163	0.15340323
443.374	0.1529227
443.584	0.15236954
443.795	0.1519823
444.006	0.15174125
444.216	0.1511226
444.427	0.15069775
444.638	0.15037251
444.848	0.14986128
445.059	0.149556
445.27	0.14906771
445.48	0.14840357
445.691	0.14802007
445.901	0.14783915
446.112	0.14733319
446.323	0.14702999
446.533	0.1467696
446.744	0.1463858
446.954	0.14601289
447.165	0.14571109
447.375	0.14523228
447.586	0.14513469
447.796	0.14472948
448.006	0.14415328
448.217	0.14397848
448.427	0.14365755
448.638	0.14337367
448.848	0.14310087
449.058	0.14259973
449.269	0.14233759
449.479	0.14204997
449.689	0.14154918
449.9	0.14124546
450.11	0.1409036
450.32	0.14076659
450.531	0.14049311
450.741	0.14010247
450.951	0.13987552
451.161	0.13957427
451.372	0.13934384
451.582	0.13928127
451.792	0.13870369
452.002	0.1384102
452.212	0.13808747
452.422	0.13775103
452.633	0.13747155
452.843	0.1372201
453.053	0.13668878
453.263	0.13655434
453.473	0.13624812
453.683	0.13598066
453.893	0.13567618
454.103	0.13557998
454.313	0.13521276
454.523	0.13490663
454.733	0.13460507
454.943	0.13438982
455.153	0.13425331
455.363	0.13398082
455.573	0.13359195
455.783	0.13349533
455.993	0.13323217
456.203	0.13304753
456.413	0.13285353
456.623	0.13250077
456.833	0.1324278
457.042	0.13210646
457.252	0.13176019
457.462	0.13165984
457.672	0.1314285
457.882	0.13106947
458.091	0.13084472
458.301	0.13053505
458.511	0.13044368
458.721	0.13020244
458.931	0.12990097
459.14	0.12975764
459.35	0.12972542
459.56	0.1296587
459.769	0.12952111
459.979	0.12929547
460.189	0.12918552
460.398	0.12893524
460.608	0.12864771
460.817	0.1282517
461.027	0.12800596
461.237	0.12776361
461.446	0.12757566
461.656	0.12741215
461.865	0.1272804
462.075	0.12714845
462.284	0.12710022
462.494	0.1268015
462.703	0.12662036
462.913	0.12637918
463.122	0.12607207
463.332	0.12596268
463.541	0.12594262
463.751	0.12563667
463.96	0.12546511
464.169	0.12522731
464.379	0.1252519
464.588	0.1251702
464.797	0.12492043
465.007	0.12463435
465.216	0.12455039
465.425	0.12446291
465.635	0.12443548
465.844	0.12414298
466.053	0.12397293
466.263	0.12394642
466.472	0.1236064
466.681	0.12341663
466.89	0.12319483
467.099	0.1229751
467.309	0.12281662
467.518	0.12275877
467.727	0.12253272
467.936	0.1225461
468.145	0.12245569
468.354	0.12239755
468.563	0.12224092
468.772	0.12214807
468.982	0.12198296
469.191	0.12182065
469.4	0.12163473
469.609	0.12151489
469.818	0.12150561
470.027	0.12139894
470.236	0.12116453
470.445	0.12094683
470.654	0.12078592
470.863	0.12064544
471.072	0.12060671
471.28	0.12033635
471.489	0.12029058
471.698	0.12023322
471.907	0.12023307
472.116	0.12019577
472.325	0.12008228
472.534	0.11986769
472.743	0.11981334
472.951	0.11969005
473.16	0.11958517
473.369	0.11947129
473.578	0.11938709
473.786	0.11934771
473.995	0.11925459
474.204	0.11921211
474.413	0.11913499
474.621	0.11913471
474.83	0.11908371
475.039	0.11904472
475.247	0.11909004
475.456	0.11905326
475.665	0.11903664
475.873	0.11899236
476.082	0.11901399
476.291	0.11895148
476.499	0.11895142
476.708	0.11876783
476.916	0.11873799
477.125	0.11859758
477.333	0.11853791
477.542	0.11850756
477.75	0.11839554
477.959	0.11831279
478.167	0.11837784
478.376	0.11828907
478.584	0.11824312
478.793	0.11823953
479.001	0.11804636
479.209	0.11810689
479.418	0.11808324
479.626	0.11804583
479.834	0.11807933
480.043	0.11812442
480.251	0.11801801
480.459	0.1180503
480.668	0.11797631
480.876	0.11795984
481.084	0.11792512
481.293	0.11785142
481.501	0.11776214
481.709	0.11790745
481.917	0.11794901
482.125	0.1179594
482.334	0.11791468
482.542	0.11783068
482.75	0.11787773
482.958	0.11792617
483.166	0.11781584
483.374	0.11776124
483.583	0.11769032
483.791	0.11771617
483.999	0.11778594
484.207	0.11782133
484.415	0.11787255
484.623	0.11788682
484.831	0.11795097
485.039	0.11798398
485.247	0.11799268
485.455	0.11799154
485.663	0.11799414
485.871	0.11798848
486.079	0.11799129
486.287	0.11796615
486.495	0.11800071
486.702	0.11798332
486.91	0.11803129
487.118	0.11797854
487.326	0.11800309
487.534	0.11807394
487.742	0.11815314
487.95	0.118268
488.157	0.11840482
488.365	0.11849511
488.573	0.11866405
488.781	0.11877927
488.988	0.11888942
489.196	0.11892067
489.404	0.11891808
489.612	0.11893734
489.819	0.11895664
490.027	0.11892812
490.235	0.11894932
490.442	0.11889802
490.65	0.11886669
490.857	0.11890113
491.065	0.11896702
491.273	0.11899629
491.48	0.11914691
491.688	0.11914413
491.895	0.11929671
492.103	0.11943383
492.31	0.11960128
492.518	0.11965477
492.725	0.11980936
492.933	0.11985331
493.14	0.11999021
493.348	0.12006944
493.555	0.12017144
493.763	0.12021591
493.97	0.12036558
494.177	0.12041952
494.385	0.12048403
494.592	0.120568
494.8	0.12056014
495.007	0.12063313
495.214	0.12070994
495.422	0.12078926
495.629	0.12088556
495.836	0.12097823
496.043	0.12108086
496.251	0.12122706
496.458	0.1213462
496.665	0.1214911
496.872	0.12159837
497.08	0.12175012
497.287	0.12189681
497.494	0.12201454
497.701	0.12210719
497.908	0.12229328
498.115	0.12236865
498.322	0.12245434
498.53	0.12248115
498.737	0.12261791
498.944	0.12279954
499.151	0.12300991
499.358	0.12309651
499.565	0.12324618
499.772	0.12334265
499.979	0.1235593
500.186	0.12363697
500.393	0.12370078
500.6	0.12377429
500.807	0.12392071
501.014	0.12400423
501.221	0.12423074
501.427	0.12432152
501.634	0.12447138
501.841	0.12462798
502.048	0.12471253
502.255	0.12480218
502.462	0.12502615
502.669	0.12512109
502.875	0.12527042
503.082	0.1254402
503.289	0.12555664
503.496	0.12572905
503.702	0.12592334
503.909	0.12601585
504.116	0.12615942
504.323	0.12630109
504.529	0.12643964
504.736	0.12659666
504.943	0.12678571
505.149	0.12690367
505.356	0.12707099
505.563	0.12714708
505.769	0.1273196
505.976	0.1274611
506.182	0.12763293
506.389	0.12775927
506.595	0.1279693
506.802	0.12814338
507.008	0.12843027
507.215	0.12860935
507.421	0.12883592
507.628	0.12902644
507.834	0.12925174
508.041	0.12939129
508.247	0.12955493
508.454	0.12973784
508.66	0.12989217
508.866	0.13003338
509.073	0.13024413
509.279	0.13043009
509.486	0.13068552
509.692	0.13094207
509.898	0.13113699
510.105	0.13136419
510.311	0.13156865
510.517	0.13174427
510.723	0.13194466
510.93	0.13211295
511.136	0.13225637
511.342	0.13245405
511.548	0.13267287
511.754	0.13287085
511.961	0.13303221
512.167	0.133225
512.373	0.13336457
512.579	0.1335922
512.785	0.13379233
512.991	0.13396176
513.197	0.13417965
513.404	0.1344272
513.61	0.13463947
513.816	0.13490225
514.022	0.13507799
514.228	0.13525012
514.434	0.13549442
514.64	0.13568891
514.846	0.1358607
515.052	0.13609619
515.258	0.13629545
515.464	0.13654384
515.669	0.13681786
515.875	0.13699901
516.081	0.13722915
516.287	0.13749981
516.493	0.13773878
516.699	0.13796109
516.905	0.13817555
517.111	0.13832119
517.316	0.13853529
517.522	0.13880923
517.728	0.13902901
517.934	0.13915966
518.139	0.1393247
518.345	0.13952041
518.551	0.13983043
518.757	0.14009711
518.962	0.14027404
519.168	0.14048695
519.374	0.14075725
519.579	0.14106125
519.785	0.14130239
519.991	0.14144776
520.196	0.14165123
520.402	0.14188131
520.607	0.14208937
520.813	0.14233015
521.018	0.14257488
521.224	0.14284298
521.429	0.14314665
521.635	0.14333998
521.84	0.14359063
522.046	0.14386022
522.251	0.1441105
522.457	0.14432867
522.662	0.14455959
522.868	0.14479401
523.073	0.14509777
523.279	0.14534237
523.484	0.14558321
523.689	0.14584952
523.895	0.14609569
524.1	0.14634216
524.305	0.14659568
524.511	0.14686692
524.716	0.14712938
524.921	0.14740674
525.126	0.1476537
525.332	0.14791776
525.537	0.14816832
525.742	0.14839045
525.947	0.14859715
526.153	0.14885441
526.358	0.14908867
526.563	0.14927029
526.768	0.14946593
526.973	0.14974111
527.178	0.15004032
527.383	0.15025938
527.588	0.15051913
527.794	0.15074083
527.999	0.15109223
528.204	0.15139506
528.409	0.15161158
528.614	0.15185724
528.819	0.15215005
529.024	0.15232334
529.229	0.15258378
529.434	0.15275899
529.639	0.15299656
529.843	0.15324686
530.048	0.15343271
530.253	0.15371656
530.458	0.15403343
530.663	0.15431584
530.868	0.15461266
531.073	0.15487465
531.278	0.15510626
531.482	0.15543581
531.687	0.15563792
531.892	0.15591035
532.097	0.1561178
532.302	0.15639473
532.506	0.15668896
532.711	0.15697307
532.916	0.1571538
533.12	0.15741657
533.325	0.15759755
533.53	0.15786883
533.734	0.15806823
533.939	0.15825642
534.144	0.15847931
534.348	0.15877658
534.553	0.15902924
534.757	0.15935668
534.962	0.15965266
535.167	0.15993892
535.371	0.16026655
535.576	0.16055161
535.78	0.16081306
535.985	0.16107997
536.189	0.16134001
536.394	0.16158588
536.598	0.16177117
536.803	0.16191538
537.007	0.16217654
537.211	0.1624392
537.416	0.16266456
537.62	0.16291933
537.825	0.16315313
538.029	0.16352345
538.233	0.16386044
538.438	0.16405954
538.642	0.16429618
538.846	0.16460104
539.05	0.16477323
539.255	0.1650063
539.459	0.16520555
539.663	0.16541636
539.867	0.16570933
540.072	0.16589961
540.276	0.16612718
540.48	0.1664284
540.684	0.16666084
540.888	0.16691259
541.092	0.16716871
541.297	0.16741615
541.501	0.16768329
541.705	0.16789376
541.909	0.1681345
542.113	0.16842235
542.317	0.16865975
542.521	0.16896496
542.725	0.16925168
542.929	0.16957433
543.133	0.16990802
543.337	0.1701678
543.541	0.17044397
543.745	0.17069116
543.949	0.17089231
544.153	0.17111374
544.357	0.17134526
544.56	0.17157779
544.764	0.17183355
544.968	0.17201583
545.172	0.17223572
545.376	0.17240575
545.58	0.17261481
545.783	0.17279189
545.987	0.17299294
546.191	0.1731605
546.395	0.17343217
546.598	0.17374354
546.802	0.17404265
547.006	0.17431008
547.21	0.17455812
547.413	0.17480817
547.617	0.17504081
547.821	0.17524917
548.024	0.17541496
548.228	0.17559419
548.431	0.17577773
548.635	0.17599055
548.839	0.1761645
549.042	0.17642023
549.246	0.17666681
549.449	0.17683119
549.653	0.1770604
549.856	0.17728245
550.06	0.17747413
550.263	0.17768477
550.467	0.17787769
550.67	0.1780505
550.874	0.17827988
551.077	0.17848892
551.28	0.17868223
551.484	0.17891294
551.687	0.17912024
551.891	0.17934921
552.094	0.17945184
552.297	0.17965328
552.501	0.17985259
552.704	0.18001404
552.907	0.1801538
553.11	0.18035506
553.314	0.18061683
553.517	0.18089758
553.72	0.18109499
553.923	0.18133484
554.127	0.18156138
554.33	0.18172638
554.533	0.1819444
554.736	0.18203206
554.939	0.18221747
555.142	0.1824623
555.345	0.18257795
555.549	0.18277609
555.752	0.18301889
555.955	0.18319651
556.158	0.18344771
556.361	0.18365435
556.564	0.18378199
556.767	0.18403719
556.97	0.18427312
557.173	0.18449577
557.376	0.18464179
557.579	0.18472371
557.782	0.18487337
557.984	0.18504851
558.187	0.1851819
558.39	0.18521734
558.593	0.18531251
558.796	0.18540511
558.999	0.1855671
559.202	0.18569803
559.404	0.18582888
559.607	0.18596547
559.81	0.18617454
560.013	0.18633597
560.216	0.1865525
560.418	0.18669466
560.621	0.18683884
560.824	0.18696517
561.026	0.18716228
561.229	0.18727308
561.432	0.18740437
561.634	0.18751797
561.837	0.18767669
562.04	0.18782528
562.242	0.18800628
562.445	0.18807259
562.647	0.18825387
562.85	0.18838391
563.053	0.18849135
563.255	0.18854744
563.458	0.18867367
563.66	0.18877338
563.863	0.1889449
