Data from 1_mm_pl_30pc_Absorbance__0__17-21-37-075.txt Node

Date: Wed Mar 08 17:21:37 CET 2023
User: Ange
Spectrometer: FLMT08341
Trigger mode: 0
Integration Time (sec): 1.000000E-2
Scans to average: 400
Electric dark correction enabled: true
Nonlinearity correction enabled: false
Boxcar width: 3
XAxis mode: Wavelengths
Number of Pixels in Spectrum: 3648
>>>>>Begin Spectral Data<<<<<
345.271	0.03617971
345.487	0.02569443
345.704	0.00977794
345.921	0.01265235
346.137	0.01014511
346.354	-0.00314871
346.571	-0.02349434
346.787	-0.16544972
347.004	0.11361992
347.22	-0.06120386
347.437	-0.0029539
347.653	0.13807904
347.87	-0.155324
348.086	-0
348.303	-0.27800678
348.519	0.28472343
348.736	0.24673301
348.952	0.25570608
349.169	0.26652505
349.385	0.27390147
349.601	0.27057054
349.818	0.27121585
350.034	0.26784636
350.251	0.26984348
350.467	0.27235208
350.683	0.26525471
350.9	0.2687476
351.116	0.26591101
351.332	0.26361668
351.549	0.27409639
351.765	0.28329842
351.981	0.28837895
352.197	0.29975896
352.414	0.30861054
352.63	0.31703137
352.846	0.32556308
353.062	0.3214048
353.278	0.31518249
353.495	0.32140797
353.711	0.32455541
353.927	0.32476989
354.143	0.32677755
354.359	0.32306441
354.575	0.32068397
354.792	0.32759183
355.008	0.32298273
355.224	0.31866043
355.44	0.31632097
355.656	0.31625972
355.872	0.32256581
356.088	0.33955687
356.304	0.34373134
356.52	0.3475742
356.736	0.35111041
356.952	0.35945741
357.168	0.36206584
357.384	0.36694773
357.6	0.35743195
357.816	0.36144924
358.032	0.36644816
358.248	0.37706436
358.464	0.37778129
358.679	0.38358366
358.895	0.38518341
359.111	0.394046
359.327	0.38980437
359.543	0.3922217
359.759	0.39886369
359.974	0.39665784
360.19	0.39553782
360.406	0.39659799
360.622	0.39282135
360.838	0.3917827
361.053	0.39564154
361.269	0.39601195
361.485	0.40094228
361.701	0.40549086
361.916	0.40258422
362.132	0.40632998
362.348	0.41181775
362.563	0.41236872
362.779	0.41017115
362.995	0.41276931
363.21	0.41487228
363.426	0.41859698
363.641	0.42156702
363.857	0.4263745
364.073	0.424718
364.288	0.42366865
364.504	0.43189526
364.719	0.43361483
364.935	0.43498258
365.15	0.43620601
365.366	0.43736423
365.581	0.44534884
365.797	0.44908806
366.012	0.44409389
366.228	0.44231838
366.443	0.44990824
366.658	0.45084074
366.874	0.44868867
367.089	0.45175475
367.305	0.45422408
367.52	0.45705176
367.735	0.45935249
367.951	0.4566826
368.166	0.46187622
368.381	0.47142481
368.597	0.46765186
368.812	0.47196512
369.027	0.47608958
369.243	0.47979149
369.458	0.48821266
369.673	0.48994408
369.888	0.48872945
370.104	0.48860682
370.319	0.49250106
370.534	0.49069858
370.749	0.49231241
370.964	0.49281467
371.179	0.49276392
371.395	0.49215886
371.61	0.49883477
371.825	0.49233421
372.04	0.49601663
372.255	0.49496402
372.47	0.49134278
372.685	0.48890736
372.9	0.48989073
373.115	0.48702693
373.33	0.49222233
373.545	0.49490908
373.76	0.49940693
373.975	0.50112203
374.19	0.5034954
374.405	0.50659252
374.62	0.51562404
374.835	0.52132054
375.05	0.52068329
375.265	0.52299338
375.48	0.52794367
375.695	0.53812785
375.91	0.53674094
376.125	0.53018019
376.339	0.52422208
376.554	0.5278169
376.769	0.52937125
376.984	0.52963691
377.199	0.53042312
377.414	0.53356272
377.628	0.54144058
377.843	0.54874542
378.058	0.55147439
378.273	0.55572833
378.487	0.55819302
378.702	0.55957518
378.917	0.56240636
379.131	0.56049338
379.346	0.55429432
379.561	0.55277961
379.775	0.55097062
379.99	0.5480776
380.205	0.54369042
380.419	0.54167407
380.634	0.53921344
380.848	0.54620006
381.063	0.54767326
381.278	0.55328122
381.492	0.55372136
381.707	0.56076356
381.921	0.56267948
382.136	0.5704147
382.35	0.56901659
382.565	0.56878792
382.779	0.56876036
382.994	0.57270116
383.208	0.56911398
383.422	0.57527538
383.637	0.57591685
383.851	0.58139127
384.066	0.5857712
384.28	0.58935739
384.494	0.59104133
384.709	0.59689518
384.923	0.59750793
385.137	0.59499707
385.352	0.59511145
385.566	0.59742881
385.78	0.59765098
385.995	0.59834471
386.209	0.59697931
386.423	0.59988606
386.637	0.60431192
386.852	0.60365573
387.066	0.60340348
387.28	0.60104016
387.494	0.60545292
387.708	0.60919446
387.923	0.60869776
388.137	0.61159445
388.351	0.61482918
388.565	0.61996799
388.779	0.6240234
388.993	0.62991787
389.207	0.63057609
389.421	0.63356151
389.635	0.63238658
389.85	0.6326879
390.064	0.63260589
390.278	0.6345152
390.492	0.63427695
390.706	0.63630781
390.92	0.63722821
391.134	0.64184308
391.348	0.64936119
391.561	0.64888657
391.775	0.64739942
391.989	0.64506442
392.203	0.64787435
392.417	0.65066174
392.631	0.65364251
392.845	0.65009616
393.059	0.65506986
393.273	0.65668193
393.486	0.6555134
393.7	0.65213096
393.914	0.65410044
394.128	0.65350133
394.342	0.65411671
394.555	0.64927557
394.769	0.65074303
394.983	0.65529563
395.197	0.65967925
395.41	0.66004971
395.624	0.66201316
395.838	0.66203365
396.051	0.67039458
396.265	0.66948024
396.479	0.67104259
396.692	0.6720028
396.906	0.67153624
397.12	0.67141014
397.333	0.6757742
397.547	0.67382877
397.76	0.67840205
397.974	0.6788158
398.187	0.68096394
398.401	0.68404166
398.614	0.6853434
398.828	0.68640148
399.041	0.68711465
399.255	0.6871425
399.468	0.68801817
399.682	0.68766658
399.895	0.68979673
400.109	0.6900042
400.322	0.68890302
400.536	0.68712292
400.749	0.69123979
400.962	0.69265619
401.176	0.69269807
401.389	0.69083017
401.602	0.68771766
401.816	0.69088951
402.029	0.6945972
402.242	0.69233526
402.456	0.69206402
402.669	0.69060386
402.882	0.68777667
403.095	0.6931904
403.309	0.6922501
403.522	0.69265521
403.735	0.69226716
403.948	0.69347649
404.161	0.70040097
404.375	0.70356005
404.588	0.70405623
404.801	0.70460018
405.014	0.70442449
405.227	0.70853464
405.44	0.7093981
405.653	0.70922959
405.866	0.70789723
406.079	0.70724743
406.293	0.70771088
406.506	0.7072781
406.719	0.70532954
406.932	0.7038769
407.145	0.70111967
407.358	0.70544896
407.571	0.70346529
407.784	0.70411312
407.996	0.70617933
408.209	0.70461518
408.422	0.70382579
408.635	0.70526219
408.848	0.70379674
409.061	0.70102318
409.274	0.70009489
409.487	0.69830517
409.7	0.69911177
409.912	0.69991858
410.125	0.69898688
410.338	0.69856563
410.551	0.69995169
410.764	0.70053204
410.976	0.70099961
411.189	0.70092389
411.402	0.70001891
411.615	0.70039058
411.827	0.70078059
412.04	0.70228467
412.253	0.69974322
412.465	0.69809309
412.678	0.69670171
412.891	0.69839572
413.103	0.69427007
413.316	0.69260004
413.529	0.69356738
413.741	0.69583073
413.954	0.69721682
414.166	0.69746053
414.379	0.69573869
414.591	0.6983172
414.804	0.69741515
415.016	0.69536139
415.229	0.69302395
415.441	0.69001599
415.654	0.69062138
415.866	0.69017922
416.079	0.68988984
416.291	0.68826118
416.504	0.68976133
416.716	0.68983962
416.928	0.69029951
417.141	0.68791451
417.353	0.68780974
417.566	0.68428014
417.778	0.68478143
417.99	0.67993441
418.203	0.676899
418.415	0.67564289
418.627	0.67567017
418.839	0.67412062
419.052	0.67625454
419.264	0.67475913
419.476	0.67519291
419.688	0.67605828
419.901	0.67513068
420.113	0.67262053
420.325	0.67083655
420.537	0.66669611
420.749	0.6663814
420.961	0.66593218
421.174	0.66358395
421.386	0.66112535
421.598	0.66010532
421.81	0.65868976
422.022	0.65834885
422.234	0.65676086
422.446	0.65463472
422.658	0.65292242
422.87	0.65256981
423.082	0.65142473
423.294	0.64976308
423.506	0.64855569
423.718	0.64650216
423.93	0.64389871
424.142	0.64203713
424.354	0.63936621
424.566	0.63742265
424.778	0.63633501
424.99	0.6344115
425.202	0.63204615
425.414	0.631354
425.625	0.63110732
425.837	0.62914013
426.049	0.62791814
426.261	0.62564841
426.473	0.62334458
426.684	0.62206319
426.896	0.62104963
427.108	0.61813773
427.32	0.61773747
427.531	0.61556928
427.743	0.61390472
427.955	0.61384518
428.167	0.61140001
428.378	0.60871476
428.59	0.60707653
428.802	0.6048746
429.013	0.60248353
429.225	0.60032003
429.436	0.5973006
429.648	0.59656553
429.86	0.59504492
430.071	0.59367489
430.283	0.59152041
430.494	0.58936526
430.706	0.58783286
430.917	0.58551575
431.129	0.5834324
431.34	0.58087544
431.552	0.57903798
431.763	0.57652826
431.975	0.5750696
432.186	0.57205367
432.398	0.57003344
432.609	0.56634987
432.821	0.56483852
433.032	0.56196196
433.243	0.55969943
433.455	0.55742805
433.666	0.55613804
433.877	0.55440671
434.089	0.55213481
434.3	0.54897715
434.511	0.54597507
434.723	0.54366062
434.934	0.5406652
435.145	0.53713751
435.356	0.53396311
435.568	0.53219643
435.779	0.52972309
435.99	0.52712127
436.201	0.52448095
436.412	0.52197212
436.624	0.52050698
436.835	0.51877301
437.046	0.51667093
437.257	0.5143733
437.468	0.51329912
437.679	0.511598
437.89	0.50976899
438.101	0.5078178
438.312	0.50546146
438.523	0.50303746
438.734	0.5010583
438.945	0.49840035
439.156	0.4953325
439.367	0.493096
439.578	0.49104346
439.789	0.48792566
440	0.48573609
440.211	0.48287779
440.422	0.48055381
440.633	0.47892711
440.844	0.47586459
441.055	0.47244689
441.266	0.47079603
441.477	0.46770871
441.687	0.46556855
441.898	0.46315419
442.109	0.45995141
442.32	0.45763601
442.531	0.45472941
442.741	0.45093266
442.952	0.448525
443.163	0.44610347
443.374	0.44330432
443.584	0.44091036
443.795	0.43862447
444.006	0.43672877
444.216	0.43467249
444.427	0.43183635
444.638	0.42900877
444.848	0.42646122
445.059	0.42396078
445.27	0.42100886
445.48	0.41775108
445.691	0.41555857
445.901	0.41346583
446.112	0.41095553
446.323	0.40817071
446.533	0.40581608
446.744	0.40325212
446.954	0.40112412
447.165	0.39848559
447.375	0.39620788
447.586	0.39411081
447.796	0.39180104
448.006	0.38926797
448.217	0.3872484
448.427	0.38480747
448.638	0.38221944
448.848	0.37961205
449.058	0.37686457
449.269	0.37454389
449.479	0.37213429
449.689	0.36948194
449.9	0.36700613
450.11	0.36465485
450.32	0.36257131
450.531	0.36007438
450.741	0.35746574
450.951	0.35512525
451.161	0.3528107
451.372	0.35055485
451.582	0.34887133
451.792	0.34620787
452.002	0.34386902
452.212	0.34158052
452.422	0.33921093
452.633	0.33662648
452.843	0.33461987
453.053	0.33142956
453.263	0.32922943
453.473	0.32705786
453.683	0.32514203
453.893	0.32275001
454.103	0.32100599
454.313	0.31873062
454.523	0.31685239
454.733	0.31478978
454.943	0.31294689
455.153	0.3109666
455.363	0.30884054
455.573	0.30652108
455.783	0.30444168
455.993	0.30229278
456.203	0.30045542
456.413	0.29827254
456.623	0.29592336
456.833	0.29422311
457.042	0.29224123
457.252	0.29016028
457.462	0.28806014
457.672	0.28592123
457.882	0.28379522
458.091	0.28178929
458.301	0.2794603
458.511	0.27739176
458.721	0.27546402
458.931	0.2735072
459.14	0.27163532
459.35	0.26995798
459.56	0.26812571
459.769	0.26663127
459.979	0.26470249
460.189	0.26279667
460.398	0.26092435
460.608	0.25921909
460.817	0.25745135
461.027	0.25583659
461.237	0.25396056
461.446	0.25232359
461.656	0.25081492
461.865	0.24921054
462.075	0.24743985
462.284	0.2458808
462.494	0.24414997
462.703	0.24239964
462.913	0.24090865
463.122	0.23924636
463.332	0.23773031
463.541	0.23623632
463.751	0.23456999
463.96	0.23307653
464.169	0.23170896
464.379	0.23043831
464.588	0.22892129
464.797	0.22751562
465.007	0.22614141
465.216	0.22488194
465.425	0.22365706
465.635	0.22232882
465.844	0.22093073
466.053	0.21977106
466.263	0.21848311
466.472	0.21719539
466.681	0.21587716
466.89	0.21444646
467.099	0.21326214
467.309	0.21192692
467.518	0.21072207
467.727	0.20951221
467.936	0.2082637
468.145	0.20718072
468.354	0.2060858
468.563	0.20484946
468.772	0.20357076
468.982	0.20253295
469.191	0.20156892
469.4	0.20048692
469.609	0.19939518
469.818	0.19836648
470.027	0.19736343
470.236	0.19635389
470.445	0.19515793
470.654	0.19389193
470.863	0.19282194
471.072	0.19178844
471.28	0.19071045
471.489	0.18968342
471.698	0.18891082
471.907	0.18810052
472.116	0.18735553
472.325	0.18654509
472.534	0.18576669
472.743	0.18503622
472.951	0.18426495
473.16	0.18333103
473.369	0.18242778
473.578	0.18157356
473.786	0.18075688
473.995	0.17989469
474.204	0.17918088
474.413	0.17836523
474.621	0.17768435
474.83	0.17717126
475.039	0.17644362
475.247	0.17573961
475.456	0.17506085
475.665	0.17424177
475.873	0.17358232
476.082	0.17278622
476.291	0.17209114
476.499	0.17169705
476.708	0.17104979
476.916	0.17054978
477.125	0.17012265
477.333	0.16962158
477.542	0.16920995
477.75	0.16859275
477.959	0.16796483
478.167	0.16756823
478.376	0.16693424
478.584	0.16638966
478.793	0.16590677
479.001	0.16553321
479.209	0.16505162
479.418	0.16463955
479.626	0.1642685
479.834	0.16396903
480.043	0.16364954
480.251	0.16332737
480.459	0.16286447
480.668	0.16269163
480.876	0.16234829
481.084	0.16197255
481.293	0.16166054
481.501	0.16129275
481.709	0.16101838
481.917	0.16080782
482.125	0.16051861
482.334	0.16020907
482.542	0.16005459
482.75	0.1598934
482.958	0.15977444
483.166	0.15962828
483.374	0.15952774
483.583	0.15933244
483.791	0.15922496
483.999	0.15897809
484.207	0.15877319
484.415	0.15856966
484.623	0.15837525
484.831	0.15812913
485.039	0.15799974
485.247	0.15793803
485.455	0.15774568
485.663	0.15762305
485.871	0.15752304
486.079	0.15737374
486.287	0.1573081
486.495	0.1572052
486.702	0.15702071
486.91	0.15700248
487.118	0.15690925
487.326	0.15688416
487.534	0.15701044
487.742	0.15717182
487.95	0.15724439
488.157	0.15735072
488.365	0.15753418
488.573	0.1577301
488.781	0.1579397
488.988	0.15798578
489.196	0.15801635
489.404	0.15810758
489.612	0.15824351
489.819	0.15835635
490.027	0.15841053
490.235	0.1584287
490.442	0.15853469
490.65	0.15860862
490.857	0.15885708
491.065	0.15907183
491.273	0.15924257
491.48	0.15951058
491.688	0.15975571
491.895	0.16006256
492.103	0.16035358
492.31	0.16057136
492.518	0.16072376
492.725	0.16096006
492.933	0.16110839
493.14	0.16128154
493.348	0.16145412
493.555	0.16165288
493.763	0.16177168
493.97	0.16205839
494.177	0.16233141
494.385	0.16269179
494.592	0.16303312
494.8	0.16328465
495.007	0.1636875
495.214	0.16409471
495.422	0.16452242
495.629	0.1648669
495.836	0.16524201
496.043	0.16565915
496.251	0.16616167
496.458	0.16648511
496.665	0.16684126
496.872	0.16713656
497.08	0.16750065
497.287	0.16783483
497.494	0.16822309
497.701	0.16863712
497.908	0.16919766
498.115	0.16962965
498.322	0.17004271
498.53	0.17048078
498.737	0.17090024
498.944	0.17127897
499.151	0.17164856
499.358	0.17200893
499.565	0.17251179
499.772	0.17310016
499.979	0.17370176
500.186	0.17434516
500.393	0.17489987
500.6	0.17542866
500.807	0.17594933
501.014	0.17644136
501.221	0.17690245
501.427	0.17734632
501.634	0.17779289
501.841	0.17831864
502.048	0.17888281
502.255	0.17928477
502.462	0.17980123
502.669	0.18036336
502.875	0.18094832
503.082	0.18148141
503.289	0.1820344
503.496	0.18260116
503.702	0.18327685
503.909	0.18392608
504.116	0.18457898
504.323	0.18513321
504.529	0.18575432
504.736	0.1863558
504.943	0.18696605
505.149	0.18773395
505.356	0.18842463
505.563	0.18907802
505.769	0.18980449
505.976	0.19046895
506.182	0.19121567
506.389	0.19189279
506.595	0.19246591
506.802	0.19313031
507.008	0.19379581
507.215	0.19447007
507.421	0.19516558
507.628	0.19578434
507.834	0.19648625
508.041	0.19721369
508.247	0.19792428
508.454	0.19861747
508.66	0.19925101
508.866	0.1999132
509.073	0.20068909
509.279	0.20140514
509.486	0.2020057
509.692	0.20267771
509.898	0.20338423
510.105	0.20416817
510.311	0.2049826
510.517	0.20574047
510.723	0.20651167
510.93	0.20731082
511.136	0.20814001
511.342	0.2089008
511.548	0.2096191
511.754	0.21031881
511.961	0.21104824
512.167	0.21183094
512.373	0.21268053
512.579	0.2135094
512.785	0.21437953
512.991	0.21529522
513.197	0.21624751
513.404	0.21717624
513.61	0.21804808
513.816	0.21884115
514.022	0.21956011
514.228	0.22035037
514.434	0.221058
514.64	0.22176932
514.846	0.22250215
515.052	0.2232157
515.258	0.22400438
515.464	0.2249269
515.669	0.22576658
515.875	0.22672902
516.081	0.22767986
516.287	0.22865726
516.493	0.22968446
516.699	0.23058368
516.905	0.23141325
517.111	0.23230949
517.316	0.23317243
517.522	0.23400117
517.728	0.23484943
517.934	0.23564203
518.139	0.23653793
518.345	0.23736807
518.551	0.23824407
518.757	0.23905113
518.962	0.23988159
519.168	0.24077779
519.374	0.24164605
519.579	0.24256666
519.785	0.24365375
519.991	0.24467638
520.196	0.24574675
520.402	0.2467447
520.607	0.24767061
520.813	0.24874671
521.018	0.24968698
521.224	0.25043949
521.429	0.25134234
521.635	0.25218085
521.84	0.25305347
522.046	0.25397618
522.251	0.2547935
522.457	0.25574461
522.662	0.25680095
522.868	0.25776773
523.073	0.25875881
523.279	0.259858
523.484	0.26085769
523.689	0.26196461
523.895	0.2629958
524.1	0.26397584
524.305	0.26492898
524.511	0.26588644
524.716	0.26687715
524.921	0.26792132
525.126	0.26888689
525.332	0.2698415
525.537	0.27077528
525.742	0.27172521
525.947	0.27279236
526.153	0.27370944
526.358	0.2746181
526.563	0.27555704
526.768	0.27655942
526.973	0.27764372
527.178	0.27870349
527.383	0.27965023
527.588	0.28060563
527.794	0.28158033
527.999	0.28264856
528.204	0.28370319
528.409	0.28465278
528.614	0.28577023
528.819	0.28684948
529.024	0.28787733
529.229	0.28893971
529.434	0.28995828
529.639	0.29094803
529.843	0.2919799
530.048	0.29292666
530.253	0.29391459
530.458	0.29509015
530.663	0.29617635
530.868	0.29722811
531.073	0.29817837
531.278	0.29910107
531.482	0.30004425
531.687	0.30108866
531.892	0.30200875
532.097	0.30293135
532.302	0.30396606
532.506	0.3051369
532.711	0.30630718
532.916	0.30752708
533.12	0.30862466
533.325	0.30973524
533.53	0.31087732
533.734	0.31196691
533.939	0.31303447
534.144	0.31414042
534.348	0.31513525
534.553	0.31621774
534.757	0.31725362
534.962	0.31835992
535.167	0.31941123
535.371	0.32039671
535.576	0.32146198
535.78	0.32250268
535.985	0.32355697
536.189	0.32460113
536.394	0.32562734
536.598	0.32668876
536.803	0.32778031
537.007	0.32881073
537.211	0.32994802
537.416	0.33094673
537.62	0.33197627
537.825	0.3330152
538.029	0.33418951
538.233	0.33528836
538.438	0.33644151
538.642	0.33749477
538.846	0.33869684
539.05	0.33985778
539.255	0.3409189
539.459	0.34190964
539.663	0.34297186
539.867	0.34401935
540.072	0.34505012
540.276	0.34608143
540.48	0.34729104
540.684	0.34845419
540.888	0.34967438
541.092	0.35077343
541.297	0.35187608
541.501	0.35295817
541.705	0.35402972
541.909	0.35495052
542.113	0.35591966
542.317	0.35694629
542.521	0.35809383
542.725	0.35923835
542.929	0.36040714
543.133	0.36153242
543.337	0.36277043
543.541	0.3639964
543.745	0.36502445
543.949	0.3661174
544.153	0.36707782
544.357	0.36812307
544.56	0.36925216
544.764	0.37033354
544.968	0.37130082
545.172	0.37235721
545.376	0.37337486
545.58	0.37460541
545.783	0.37576331
545.987	0.37677964
546.191	0.37780816
546.395	0.37906665
546.598	0.38031321
546.802	0.38153424
547.006	0.38254879
547.21	0.38343098
547.413	0.38452854
547.617	0.38567869
547.821	0.3866668
548.024	0.3877076
548.228	0.38866119
548.431	0.38979624
548.635	0.39106084
548.839	0.39213525
549.042	0.39315759
549.246	0.39416085
549.449	0.39522962
549.653	0.39633011
549.856	0.3973981
550.06	0.39835009
550.263	0.3995126
550.467	0.4006447
550.67	0.40185829
550.874	0.40291929
551.077	0.40404472
551.28	0.40514963
551.484	0.40626685
551.687	0.40721146
551.891	0.40830788
552.094	0.40937046
552.297	0.41057235
552.501	0.4117834
552.704	0.41292273
552.907	0.41402695
553.11	0.41519561
