Data from 0_1_mm_pl_80pc_Absorbance__0__17-55-54-633.txt Node

Date: Wed Mar 01 17:55:54 CET 2023
User: Ange
Spectrometer: FLMT08341
Trigger mode: 0
Integration Time (sec): 1.000000E-2
Scans to average: 400
Electric dark correction enabled: true
Nonlinearity correction enabled: false
Boxcar width: 3
XAxis mode: Wavelengths
Number of Pixels in Spectrum: 3648
>>>>>Begin Spectral Data<<<<<
345.271	-0.04088688
345.487	-0.02640848
345.704	-0.03257944
345.921	-0.03701079
346.137	-0.03335797
346.354	-0.0291553
346.571	0.00899493
346.787	0.13459196
347.004	-0.11330955
347.22	-0.1375126
347.437	-0.23690052
347.653	-0.20863907
347.87	0.16221038
348.086	-0.08118043
348.303	0.14548166
348.519	0.02544783
348.736	0.04386178
348.952	0.05205906
349.169	0.05708351
349.385	0.05883941
349.601	0.05980465
349.818	0.05843056
350.034	0.05968468
350.251	0.06032623
350.467	0.05974276
350.683	0.05846864
350.9	0.05737233
351.116	0.05568534
351.332	0.05426083
351.549	0.05394158
351.765	0.0537586
351.981	0.05316804
352.197	0.05413905
352.414	0.0563813
352.63	0.05641056
352.846	0.05852692
353.062	0.05776495
353.278	0.05631971
353.495	0.05732735
353.711	0.05605391
353.927	0.05581306
354.143	0.05580424
354.359	0.05562317
354.575	0.05508904
354.792	0.05527477
355.008	0.05587236
355.224	0.05654563
355.44	0.05292235
355.656	0.05263313
355.872	0.05202987
356.088	0.05490671
356.304	0.05479941
356.52	0.05298317
356.736	0.0530738
356.952	0.0555101
357.168	0.05514981
357.384	0.0551077
357.6	0.05120917
357.816	0.05075601
358.032	0.05167352
358.248	0.05107365
358.464	0.05068249
358.679	0.05267784
358.895	0.05220974
359.111	0.05349563
359.327	0.05347954
359.543	0.05270442
359.759	0.05245876
359.974	0.05163604
360.19	0.05012098
360.406	0.04869714
360.622	0.04796109
360.838	0.04694303
361.053	0.04721341
361.269	0.04720094
361.485	0.04845211
361.701	0.04717335
361.916	0.04781146
362.132	0.04854122
362.348	0.04948136
362.563	0.04827437
362.779	0.04805946
362.995	0.04658396
363.21	0.04766009
363.426	0.04725024
363.641	0.04662298
363.857	0.04625787
364.073	0.04648264
364.288	0.04566537
364.504	0.0462573
364.719	0.04580007
364.935	0.04548868
365.15	0.04579815
365.366	0.04523487
365.581	0.04542652
365.797	0.04626058
366.012	0.04622581
366.228	0.04652144
366.443	0.04759524
366.658	0.04707908
366.874	0.04629703
367.089	0.04641215
367.305	0.04648875
367.52	0.04598068
367.735	0.04526272
367.951	0.04446809
368.166	0.04546271
368.381	0.04704802
368.597	0.04767932
368.812	0.04730441
369.027	0.04829897
369.243	0.04838888
369.458	0.04824196
369.673	0.04738214
369.888	0.04691954
370.104	0.04572455
370.319	0.04570237
370.534	0.04507671
370.749	0.04575429
370.964	0.0470334
371.179	0.04691756
371.395	0.04687639
371.61	0.0469013
371.825	0.04684331
372.04	0.04640051
372.255	0.04622978
372.47	0.04511847
372.685	0.04493907
372.9	0.04494828
373.115	0.0459988
373.33	0.04538498
373.545	0.04542233
373.76	0.04480475
373.975	0.0445046
374.19	0.04428122
374.405	0.04416794
374.62	0.04337283
374.835	0.04384229
375.05	0.04460943
375.265	0.04490647
375.48	0.04504462
375.695	0.04504443
375.91	0.04476489
376.125	0.04454555
376.339	0.04390776
376.554	0.04387149
376.769	0.043582
376.984	0.04391461
377.199	0.04412649
377.414	0.04452383
377.628	0.04502675
377.843	0.04559499
378.058	0.04496729
378.273	0.04575075
378.487	0.04644263
378.702	0.04675084
378.917	0.04647587
379.131	0.04602862
379.346	0.04574699
379.561	0.04632153
379.775	0.04588156
379.99	0.04520031
380.205	0.04537414
380.419	0.04552144
380.634	0.04504279
380.848	0.04549364
381.063	0.0452773
381.278	0.04579683
381.492	0.04550281
381.707	0.04621542
381.921	0.04611158
382.136	0.04715768
382.35	0.04715026
382.565	0.04709911
382.779	0.04644873
382.994	0.04684879
383.208	0.04577055
383.422	0.04598405
383.637	0.04570454
383.851	0.04576678
384.066	0.04631712
384.28	0.04603782
384.494	0.04609303
384.709	0.04634014
384.923	0.04633129
385.137	0.04585361
385.352	0.04605216
385.566	0.0455216
385.78	0.04632709
385.995	0.04599887
386.209	0.04569986
386.423	0.04554723
386.637	0.04569424
386.852	0.04599634
387.066	0.04590031
387.28	0.04540585
387.494	0.04552579
387.708	0.04590075
387.923	0.04572298
388.137	0.04639492
388.351	0.04566962
388.565	0.04598771
388.779	0.04597318
388.993	0.0463919
389.207	0.04614805
389.421	0.04616251
389.635	0.04534491
389.85	0.04562256
390.064	0.0453478
390.278	0.04599338
390.492	0.04637002
390.706	0.0466484
390.92	0.04723389
391.134	0.04773154
391.348	0.04782445
391.561	0.04795227
391.775	0.04713133
391.989	0.04640543
392.203	0.04598121
392.417	0.04572326
392.631	0.04584169
392.845	0.04574
393.059	0.04597288
393.273	0.04624135
393.486	0.04595904
393.7	0.04582203
393.914	0.04588182
394.128	0.04550381
394.342	0.04543198
394.555	0.04515527
394.769	0.0449201
394.983	0.0452697
395.197	0.04596388
395.41	0.04615338
395.624	0.04691603
395.838	0.04709814
396.051	0.04728677
396.265	0.04739158
396.479	0.04744502
396.692	0.04752914
396.906	0.04741479
397.12	0.04690622
397.333	0.04723947
397.547	0.04682623
397.76	0.04699862
397.974	0.04739911
398.187	0.04729109
398.401	0.04747784
398.614	0.04777348
398.828	0.04771536
399.041	0.04824035
399.255	0.04854719
399.468	0.04811514
399.682	0.0481049
399.895	0.04777414
400.109	0.04765494
400.322	0.04741482
400.536	0.04715943
400.749	0.04685859
400.962	0.04720183
401.176	0.04704726
401.389	0.04730206
401.602	0.04691144
401.816	0.04675904
402.029	0.04686091
402.242	0.04688966
402.456	0.04653125
402.669	0.04660756
402.882	0.04657782
403.095	0.04697302
403.309	0.04715622
403.522	0.04726399
403.735	0.04718039
403.948	0.04712448
404.161	0.04719042
404.375	0.04710807
404.588	0.04705664
404.801	0.04705234
405.014	0.04694911
405.227	0.04714612
405.44	0.04741517
405.653	0.04756755
405.866	0.04721119
406.079	0.04742841
406.293	0.04708099
406.506	0.0473224
406.719	0.04737859
406.932	0.04740303
407.145	0.04718971
407.358	0.04741709
407.571	0.04683815
407.784	0.04701824
407.996	0.04666484
408.209	0.046278
408.422	0.04591432
408.635	0.04577718
408.848	0.04572424
409.061	0.04544151
409.274	0.04542373
409.487	0.04503595
409.7	0.04506025
409.912	0.04519007
410.125	0.04499267
410.338	0.04500511
410.551	0.04516215
410.764	0.04494739
410.976	0.0452109
411.189	0.04510734
411.402	0.04511298
411.615	0.04515626
411.827	0.04501557
412.04	0.04516142
412.253	0.04521895
412.465	0.04524783
412.678	0.04534547
412.891	0.04544479
413.103	0.04535002
413.316	0.04534076
413.529	0.04550447
413.741	0.04557245
413.954	0.04555209
414.166	0.04555701
414.379	0.04510364
414.591	0.04505435
414.804	0.04476131
415.016	0.04441626
415.229	0.0438679
415.441	0.04405605
415.654	0.04395986
415.866	0.04409902
416.079	0.04388465
416.291	0.0440045
416.504	0.04396418
416.716	0.04427821
416.928	0.04385387
417.141	0.0435116
417.353	0.04351839
417.566	0.0436009
417.778	0.04349826
417.99	0.0431639
418.203	0.04303975
418.415	0.04289193
418.627	0.04287202
418.839	0.04261661
419.052	0.04272098
419.264	0.04256142
419.476	0.04271701
419.688	0.04267179
419.901	0.04246432
420.113	0.04247476
420.325	0.04234951
420.537	0.04206733
420.749	0.0419998
420.961	0.04193696
421.174	0.04171529
421.386	0.04170035
421.598	0.04160587
421.81	0.04147412
422.022	0.04132772
422.234	0.04128632
422.446	0.04122794
422.658	0.04109013
422.87	0.04101443
423.082	0.04102447
423.294	0.04104582
423.506	0.04082703
423.718	0.0405923
423.93	0.04024957
424.142	0.04012295
424.354	0.03995427
424.566	0.03953173
424.778	0.03944013
424.99	0.03933695
425.202	0.03931311
425.414	0.03934284
425.625	0.03930601
425.837	0.03916947
426.049	0.03920427
426.261	0.03886879
426.473	0.03859053
426.684	0.03837737
426.896	0.03820932
427.108	0.03783758
427.32	0.03761471
427.531	0.03740935
427.743	0.03734067
427.955	0.03749256
428.167	0.03722223
428.378	0.03686534
428.59	0.03699206
428.802	0.03705167
429.013	0.03687961
429.225	0.03670988
429.436	0.03647975
429.648	0.03636988
429.86	0.03634625
430.071	0.0361348
430.283	0.03595545
430.494	0.03592684
430.706	0.03569899
430.917	0.03547691
431.129	0.03537665
431.34	0.03519798
431.552	0.03515099
431.763	0.03488637
431.975	0.03469171
432.186	0.03446033
432.398	0.03436931
432.609	0.03434869
432.821	0.03440582
433.032	0.03414025
433.243	0.03422145
433.455	0.03409644
433.666	0.0341444
433.877	0.03428734
434.089	0.03407294
434.3	0.03381759
434.511	0.03373093
434.723	0.03322103
434.934	0.03317582
435.145	0.03316861
435.356	0.03287933
435.568	0.03288792
435.779	0.03280636
435.99	0.03267395
436.201	0.03267097
436.412	0.03227763
436.624	0.03216236
436.835	0.0317569
437.046	0.03147585
437.257	0.03127796
437.468	0.03098584
437.679	0.03087542
437.89	0.03060104
438.101	0.03020206
438.312	0.03021144
438.523	0.02988352
438.734	0.02964553
438.945	0.0296955
439.156	0.02957658
439.367	0.02972697
439.578	0.02978614
439.789	0.02959743
440	0.02965481
440.211	0.02935451
440.422	0.02913109
440.633	0.02901332
440.844	0.02864677
441.055	0.02846791
441.266	0.02827966
441.477	0.02803918
441.687	0.02795286
441.898	0.02765739
442.109	0.02725204
442.32	0.0271786
442.531	0.02681633
442.741	0.02655541
442.952	0.0264076
443.163	0.0262535
443.374	0.02613496
443.584	0.02604928
443.795	0.02591361
444.006	0.02573878
444.216	0.02554582
444.427	0.02531657
444.638	0.02522687
444.848	0.02498005
445.059	0.02480365
445.27	0.02457527
445.48	0.02437231
445.691	0.0242416
445.901	0.02408358
446.112	0.02393868
446.323	0.02390817
446.533	0.0238082
446.744	0.0237347
446.954	0.02366135
447.165	0.02369796
447.375	0.02363756
447.586	0.02350129
447.796	0.02335643
448.006	0.02321231
448.217	0.02300274
448.427	0.0228184
448.638	0.02254472
448.848	0.02227506
449.058	0.02208414
449.269	0.0218646
449.479	0.02163816
449.689	0.02145001
449.9	0.02126181
450.11	0.02116821
450.32	0.02106973
450.531	0.02088914
450.741	0.02075611
450.951	0.02062593
451.161	0.02050627
451.372	0.02043327
451.582	0.0203293
451.792	0.02016742
452.002	0.02000654
452.212	0.01976467
452.422	0.01974602
452.633	0.01967166
452.843	0.01946858
453.053	0.0192685
453.263	0.01921324
453.473	0.01911857
453.683	0.01908329
453.893	0.01878189
454.103	0.01861774
454.313	0.01848814
454.523	0.0183128
454.733	0.01797398
454.943	0.01777781
455.153	0.01764044
455.363	0.01749096
455.573	0.01736089
455.783	0.01729087
455.993	0.0171856
456.203	0.01731438
456.413	0.01729303
456.623	0.01707333
456.833	0.01708179
457.042	0.01682138
457.252	0.01672508
457.462	0.01663562
457.672	0.01645973
457.882	0.01636318
458.091	0.01636008
458.301	0.01618952
458.511	0.01608856
458.721	0.01587596
458.931	0.01564288
459.14	0.01562171
459.35	0.01544408
459.56	0.01534481
459.769	0.01529411
459.979	0.01536348
460.189	0.01525945
460.398	0.01515293
460.608	0.0149781
460.817	0.01491523
461.027	0.01474197
461.237	0.01465242
461.446	0.01440772
461.656	0.01445072
461.865	0.01442442
462.075	0.01425299
462.284	0.01403565
462.494	0.01388661
462.703	0.0136441
462.913	0.01355862
463.122	0.01344861
463.332	0.01331869
463.541	0.01336322
463.751	0.01343225
463.96	0.01340382
464.169	0.01332664
464.379	0.01332201
464.588	0.01320376
464.797	0.01310076
465.007	0.01287352
465.216	0.01283393
465.425	0.0128139
465.635	0.01275936
465.844	0.01269446
466.053	0.01253554
466.263	0.0125279
466.472	0.0124575
466.681	0.01227346
466.89	0.01215808
467.099	0.01210558
467.309	0.01202265
467.518	0.01202175
467.727	0.0119555
467.936	0.0118387
468.145	0.01178056
468.354	0.01164272
468.563	0.01155324
468.772	0.01143418
468.982	0.01137571
469.191	0.01124929
469.4	0.01129341
469.609	0.01111101
469.818	0.01107358
470.027	0.01094639
470.236	0.01088821
470.445	0.01078593
470.654	0.01072098
470.863	0.01063057
471.072	0.01071725
471.28	0.01066926
471.489	0.01064447
471.698	0.0105091
471.907	0.01047571
472.116	0.01044746
472.325	0.01037213
472.534	0.01027639
472.743	0.01026351
472.951	0.01035204
473.16	0.01030181
473.369	0.0102717
473.578	0.01030989
473.786	0.01023367
473.995	0.01017238
474.204	0.0101176
474.413	0.01001083
474.621	0.01004333
474.83	0.01004372
475.039	0.00992402
475.247	0.00985285
475.456	0.00982517
475.665	0.0097631
475.873	0.00974384
476.082	0.00974832
476.291	0.00965172
476.499	0.00971521
476.708	0.00985953
476.916	0.00982775
477.125	0.0097843
477.333	0.00971994
477.542	0.0096575
477.75	0.00959267
477.959	0.00955108
478.167	0.00946294
478.376	0.00941569
478.584	0.0094406
478.793	0.00942516
479.001	0.00943311
479.209	0.00939592
479.418	0.00931809
479.626	0.00928279
479.834	0.00928928
480.043	0.00922284
480.251	0.00924666
480.459	0.00913802
480.668	0.00920424
480.876	0.0091853
481.084	0.00913541
481.293	0.00912841
481.501	0.00915663
481.709	0.0091411
481.917	0.00921472
482.125	0.00917454
482.334	0.00908521
482.542	0.00911361
482.75	0.00906248
482.958	0.00900407
483.166	0.00893555
483.374	0.00889668
483.583	0.00897194
483.791	0.00900157
483.999	0.00894753
484.207	0.00894507
484.415	0.00898821
484.623	0.00898979
484.831	0.00894778
485.039	0.00884116
485.247	0.00885603
485.455	0.00891529
485.663	0.00895626
485.871	0.00900971
486.079	0.00905769
486.287	0.00919847
486.495	0.00921512
486.702	0.00927377
486.91	0.00921476
487.118	0.0092636
487.326	0.00923407
487.534	0.00921853
487.742	0.00911683
487.95	0.00917221
488.157	0.00913592
488.365	0.00927113
488.573	0.00922378
488.781	0.0092209
488.988	0.00926319
489.196	0.00928271
489.404	0.00932856
489.612	0.00935793
489.819	0.00937925
490.027	0.00938135
490.235	0.00938315
490.442	0.00939075
490.65	0.00945106
490.857	0.00941526
491.065	0.00938847
491.273	0.0093133
491.48	0.00941789
491.688	0.00950037
491.895	0.00954805
492.103	0.00954246
492.31	0.00955997
492.518	0.0096599
492.725	0.0097087
492.933	0.00971121
493.14	0.00974533
493.348	0.00969295
493.555	0.00978361
493.763	0.00980053
493.97	0.00980413
494.177	0.00980603
494.385	0.00982656
494.592	0.00989745
494.8	0.00998926
495.007	0.00997445
495.214	0.01000758
495.422	0.0100662
495.629	0.01013666
495.836	0.01016414
496.043	0.01013945
496.251	0.01019931
496.458	0.01023596
496.665	0.01040009
496.872	0.01040207
497.08	0.01047853
497.287	0.01057545
497.494	0.01063571
497.701	0.01068214
497.908	0.01068617
498.115	0.0106994
498.322	0.01083569
498.53	0.01082488
498.737	0.01084765
498.944	0.01095414
499.151	0.01100017
499.358	0.01111814
499.565	0.01114816
499.772	0.01119468
499.979	0.01128204
500.186	0.01130417
500.393	0.01129674
500.6	0.01136231
500.807	0.01135469
501.014	0.01141079
501.221	0.01138024
501.427	0.01138739
501.634	0.01144723
501.841	0.01145922
502.048	0.01150951
502.255	0.01164481
502.462	0.01169316
502.669	0.01178058
502.875	0.01185307
503.082	0.01193836
503.289	0.01202291
503.496	0.01208932
503.702	0.01210604
503.909	0.0121343
504.116	0.01218944
504.323	0.01222646
504.529	0.01228038
504.736	0.01237012
504.943	0.01249125
505.149	0.01253475
505.356	0.01265202
505.563	0.01274054
505.769	0.01286609
505.976	0.01294
506.182	0.01299604
506.389	0.01297675
506.595	0.01307175
506.802	0.01309605
507.008	0.01319881
507.215	0.01329673
507.421	0.01340078
507.628	0.01350675
507.834	0.01353024
508.041	0.01365442
508.247	0.01375066
508.454	0.01379705
508.66	0.01385521
508.866	0.01387211
509.073	0.01393071
509.279	0.01407554
509.486	0.01408433
509.692	0.01417825
509.898	0.01430434
510.105	0.01438225
510.311	0.01445827
510.517	0.0144953
510.723	0.01458577
510.93	0.01472735
511.136	0.01479048
511.342	0.01486971
511.548	0.01493906
511.754	0.01509635
511.961	0.01521954
512.167	0.01534824
512.373	0.01541811
512.579	0.01552839
512.785	0.01559399
512.991	0.01565041
513.197	0.01564265
513.404	0.01572257
513.61	0.01582167
513.816	0.01592738
514.022	0.01597952
514.228	0.01604144
514.434	0.01618843
514.64	0.01634341
514.846	0.01645825
515.052	0.01647605
515.258	0.0165742
515.464	0.01671101
515.669	0.01681404
515.875	0.01689105
516.081	0.01693807
516.287	0.01702736
516.493	0.01713299
516.699	0.01722286
516.905	0.01731027
517.111	0.01742771
517.316	0.01753109
517.522	0.01769986
517.728	0.01781589
517.934	0.0179144
518.139	0.01799073
518.345	0.0180537
518.551	0.01814125
518.757	0.01823287
518.962	0.01832714
519.168	0.01842511
519.374	0.01854866
519.579	0.0186841
519.785	0.01884246
519.991	0.01895103
520.196	0.01907189
520.402	0.01916309
520.607	0.01927701
520.813	0.01945875
521.018	0.019538
521.224	0.01966336
521.429	0.01980097
521.635	0.01988346
521.84	0.01998314
522.046	0.02005055
522.251	0.02010859
522.457	0.02022751
522.662	0.02030264
522.868	0.02041537
523.073	0.0205775
523.279	0.0207432
523.484	0.02087935
523.689	0.02103278
523.895	0.02117103
524.1	0.02130391
524.305	0.02143327
524.511	0.02155638
524.716	0.02165952
524.921	0.02183534
525.126	0.0218985
525.332	0.02200485
525.537	0.02215221
525.742	0.02230037
525.947	0.02246148
526.153	0.02257609
526.358	0.02272817
526.563	0.02289434
526.768	0.02307065
526.973	0.02320199
527.178	0.02333479
527.383	0.02349117
527.588	0.02366785
527.794	0.02372737
527.999	0.02390785
528.204	0.02406312
528.409	0.02420741
528.614	0.0242993
528.819	0.02439432
529.024	0.02451313
529.229	0.02472263
529.434	0.02480799
529.639	0.02487639
529.843	0.02501597
530.048	0.02519213
530.253	0.02534168
530.458	0.02554167
530.663	0.0256949
530.868	0.02589095
531.073	0.02608133
531.278	0.02627022
531.482	0.02643018
531.687	0.02658389
531.892	0.02669413
532.097	0.02681261
532.302	0.0269392
532.506	0.02713489
532.711	0.02722487
532.916	0.02740509
533.12	0.02757093
533.325	0.02775298
533.53	0.02793506
533.734	0.02813534
533.939	0.02826991
534.144	0.02845391
534.348	0.02860958
534.553	0.02878724
534.757	0.02892835
534.962	0.0290618
535.167	0.02922082
535.371	0.02941087
535.576	0.02961936
535.78	0.02978891
535.985	0.02995323
536.189	0.03013697
536.394	0.03033989
536.598	0.03053718
536.803	0.03075556
537.007	0.03093303
537.211	0.03108063
537.416	0.03125677
537.62	0.03147538
537.825	0.03169892
538.029	0.03183846
538.233	0.03196785
538.438	0.03212928
538.642	0.03234027
538.846	0.03256545
539.05	0.03274767
539.255	0.03297144
539.459	0.03319349
539.663	0.03342513
539.867	0.03362004
540.072	0.03382922
540.276	0.03400031
540.48	0.03418008
540.684	0.03427274
540.888	0.03443026
541.092	0.03460162
541.297	0.03481835
541.501	0.0350255
541.705	0.03519209
541.909	0.03541565
542.113	0.03564005
542.317	0.03588267
542.521	0.03607977
542.725	0.03629376
542.929	0.03651935
543.133	0.03678782
543.337	0.03700599
543.541	0.03720681
543.745	0.03741634
543.949	0.03767072
544.153	0.03784082
544.357	0.03803742
544.56	0.0382539
544.764	0.03845669
544.968	0.03868116
545.172	0.0388911
545.376	0.03907592
545.58	0.03932583
545.783	0.03950119
545.987	0.03970127
546.191	0.0399181
546.395	0.04019134
546.598	0.04045657
546.802	0.040672
547.006	0.04087994
547.21	0.04114918
547.413	0.04135422
547.617	0.04155311
547.821	0.0417295
548.024	0.04194268
548.228	0.04214397
548.431	0.04237567
548.635	0.04261559
548.839	0.04289499
549.042	0.04317555
549.246	0.04342436
549.449	0.04364327
549.653	0.04391572
549.856	0.04417462
550.06	0.0444316
550.263	0.04468283
550.467	0.04491747
550.67	0.04513376
550.874	0.04533998
551.077	0.04556352
551.28	0.04579565
551.484	0.0460344
551.687	0.04623992
551.891	0.04649915
552.094	0.0467649
552.297	0.04705811
552.501	0.04736853
552.704	0.0476334
552.907	0.04787552
553.11	0.04815273
553.314	0.04840482
553.517	0.04867123
553.72	0.04894909
553.923	0.04915991
554.127	0.04939418
554.33	0.04963785
554.533	0.0499054
554.736	0.05012872
554.939	0.0503718
555.142	0.05060571
555.345	0.05087805
555.549	0.051182
555.752	0.05142652
555.955	0.05168278
556.158	0.05196321
556.361	0.05228704
556.564	0.05255048
556.767	0.05286202
556.97	0.05315927
557.173	0.05343781
557.376	0.05369624
557.579	0.05397541
557.782	0.05420921
557.984	0.0545121
558.187	0.05476814
558.39	0.05502228
558.593	0.05531365
558.796	0.05558323
558.999	0.05585647
559.202	0.05615079
559.404	0.05638069
559.607	0.05665089
559.81	0.05694078
560.013	0.05722656
560.216	0.05753257
560.418	0.05785017
560.621	0.05817636
560.824	0.05856939
561.026	0.0589204
561.229	0.05921646
561.432	0.05955628
561.634	0.05987012
561.837	0.06013998
562.04	0.06045763
562.242	0.06072506
562.445	0.06099441
562.647	0.06131285
562.85	0.06157116
563.053	0.06186365
563.255	0.06221701
563.458	0.06248669
563.66	0.06278204
563.863	0.06309921
