Data from 0_1_mm_pl_30pc_Absorbance__0__17-50-00-001.txt Node

Date: Wed Mar 01 17:50:00 CET 2023
User: Ange
Spectrometer: FLMT08341
Trigger mode: 0
Integration Time (sec): 1.000000E-2
Scans to average: 400
Electric dark correction enabled: true
Nonlinearity correction enabled: false
Boxcar width: 3
XAxis mode: Wavelengths
Number of Pixels in Spectrum: 3648
>>>>>Begin Spectral Data<<<<<
345.271	-0.02610747
345.487	-0.01263831
345.704	-0.0225669
345.921	-0.02360367
346.137	-0.00243098
346.354	-0.01125278
346.571	-0.01378266
346.787	-0.04359002
347.004	0.14219928
347.22	0.01197122
347.437	-0.04082536
347.653	0.16627749
347.87	0.10674811
348.086	-0
348.303	-0.13519929
348.519	0.08706124
348.736	0.07250001
348.952	0.0722498
349.169	0.07360121
349.385	0.07482001
349.601	0.0726658
349.818	0.07478938
350.034	0.07295981
350.251	0.07278405
350.467	0.07180718
350.683	0.07034289
350.9	0.07250613
351.116	0.0725595
351.332	0.07130934
351.549	0.0730763
351.765	0.07683878
351.981	0.07791539
352.197	0.07863468
352.414	0.08013891
352.63	0.08338168
352.846	0.08543577
353.062	0.08451906
353.278	0.08181745
353.495	0.08286409
353.711	0.08406612
353.927	0.08371416
354.143	0.08289406
354.359	0.08226891
354.575	0.08153548
354.792	0.08423831
355.008	0.08408507
355.224	0.0830638
355.44	0.08218266
355.656	0.08112206
355.872	0.0814955
356.088	0.08483104
356.304	0.0843159
356.52	0.08601022
356.736	0.08649906
356.952	0.08822155
357.168	0.08917861
357.384	0.09075325
357.6	0.0908052
357.816	0.09203764
358.032	0.09292366
358.248	0.09609772
358.464	0.09492169
358.679	0.09656279
358.895	0.09689483
359.111	0.0965942
359.327	0.09471971
359.543	0.09544423
359.759	0.09587373
359.974	0.0969694
360.19	0.09603249
360.406	0.09587954
360.622	0.09730102
360.838	0.09641054
361.053	0.0963368
361.269	0.09538919
361.485	0.09494345
361.701	0.09594048
361.916	0.09504098
362.132	0.09351254
362.348	0.09566309
362.563	0.09496414
362.779	0.0949968
362.995	0.09673583
363.21	0.09795396
363.426	0.09979812
363.641	0.10067903
363.857	0.10201248
364.073	0.10279702
364.288	0.10271102
364.504	0.103572
364.719	0.10383747
364.935	0.10274209
365.15	0.1041984
365.366	0.10416286
365.581	0.10462211
365.797	0.1068083
366.012	0.10625031
366.228	0.10482153
366.443	0.1060726
366.658	0.10642885
366.874	0.1040872
367.089	0.10621803
367.305	0.10543481
367.52	0.10603292
367.735	0.10650467
367.951	0.10642406
368.166	0.10605227
368.381	0.10952073
368.597	0.10798885
368.812	0.10826627
369.027	0.10852869
369.243	0.10932467
369.458	0.11159463
369.673	0.11160649
369.888	0.11132808
370.104	0.1123089
370.319	0.11290069
370.534	0.11307114
370.749	0.11383793
370.964	0.1137106
371.179	0.11414103
371.395	0.11381818
371.61	0.1131817
371.825	0.11348705
372.04	0.11455501
372.255	0.1142177
372.47	0.11393288
372.685	0.11431007
372.9	0.11473209
373.115	0.11485341
373.33	0.11517995
373.545	0.11538786
373.76	0.11584638
373.975	0.11566628
374.19	0.11467695
374.405	0.11532557
374.62	0.11704949
374.835	0.11759252
375.05	0.11835621
375.265	0.11886848
375.48	0.12039571
375.695	0.12371373
375.91	0.12399417
376.125	0.12341149
376.339	0.12358979
376.554	0.12345723
376.769	0.12374297
376.984	0.1233742
377.199	0.12319864
377.414	0.12408014
377.628	0.12536138
377.843	0.12582832
378.058	0.1255132
378.273	0.12651707
378.487	0.12661533
378.702	0.12656374
378.917	0.1267076
379.131	0.12628885
379.346	0.12582813
379.561	0.12564135
379.775	0.12618247
379.99	0.1260522
380.205	0.12628459
380.419	0.12526229
380.634	0.12411507
380.848	0.12556859
381.063	0.12719194
381.278	0.12774422
381.492	0.128192
381.707	0.12870999
381.921	0.12918815
382.136	0.13176257
382.35	0.13155958
382.565	0.13162298
382.779	0.13151326
382.994	0.13201063
383.208	0.13190043
383.422	0.13379412
383.637	0.13315735
383.851	0.13386514
384.066	0.13396407
384.28	0.13428659
384.494	0.13487236
384.709	0.13547531
384.923	0.13542266
385.137	0.13509908
385.352	0.13526925
385.566	0.13592582
385.78	0.13631918
385.995	0.13577191
386.209	0.13589848
386.423	0.13630561
386.637	0.13731528
386.852	0.13685496
387.066	0.13694802
387.28	0.13732639
387.494	0.13841137
387.708	0.1387615
387.923	0.13847113
388.137	0.13921818
388.351	0.14007682
388.565	0.14018399
388.779	0.13987205
388.993	0.1410887
389.207	0.14160172
389.421	0.1422559
389.635	0.14160761
389.85	0.14203101
390.064	0.14211029
390.278	0.14298862
390.492	0.14268313
390.706	0.1430347
390.92	0.1433576
391.134	0.14468232
391.348	0.14576603
391.561	0.14641973
391.775	0.14637902
391.989	0.1460628
392.203	0.14621081
392.417	0.1469695
392.631	0.14733537
392.845	0.14638288
393.059	0.14722209
393.273	0.14713194
393.486	0.14727899
393.7	0.146958
393.914	0.14709697
394.128	0.14698828
394.342	0.14745422
394.555	0.14681448
394.769	0.14727285
394.983	0.14771281
395.197	0.14826895
395.41	0.14815358
395.624	0.14851842
395.838	0.14886345
396.051	0.14976436
396.265	0.15006333
396.479	0.15067312
396.692	0.15130914
396.906	0.151034
397.12	0.151065
397.333	0.15130772
397.547	0.15150286
397.76	0.15205944
397.974	0.15231476
398.187	0.15275263
398.401	0.15318457
398.614	0.15340468
398.828	0.15350529
399.041	0.15341287
399.255	0.15385782
399.468	0.15405334
399.682	0.15367421
399.895	0.15384298
400.109	0.15412364
400.322	0.15466117
400.536	0.15407576
400.749	0.15380858
400.962	0.15356575
401.176	0.15384222
401.389	0.15450842
401.602	0.15392973
401.816	0.15383062
402.029	0.1549388
402.242	0.15511825
402.456	0.15535749
402.669	0.15526466
402.882	0.15408481
403.095	0.15454387
403.309	0.15443638
403.522	0.15424207
403.735	0.15389682
403.948	0.15400969
404.161	0.15483825
404.375	0.15579712
404.588	0.15629177
404.801	0.15646039
405.014	0.15647191
405.227	0.1573757
405.44	0.157641
405.653	0.15751794
405.866	0.15733213
406.079	0.15714547
406.293	0.15728041
406.506	0.157587
406.719	0.15685402
406.932	0.15671917
407.145	0.15618257
407.358	0.15665104
407.571	0.15637419
407.784	0.15675301
407.996	0.15629366
408.209	0.15633186
408.422	0.1559575
408.635	0.15582856
408.848	0.1558999
409.061	0.15552805
409.274	0.15499284
409.487	0.15486249
409.7	0.15475803
409.912	0.15483508
410.125	0.15492466
410.338	0.154408
410.551	0.15452817
410.764	0.15437515
410.976	0.15429992
411.189	0.15427362
411.402	0.15408544
411.615	0.15427046
411.827	0.15444164
412.04	0.15453243
412.253	0.15421896
412.465	0.15385707
412.678	0.15352718
412.891	0.15361307
413.103	0.15267811
413.316	0.15237513
413.529	0.15232114
413.741	0.1523219
413.954	0.15239099
414.166	0.15226155
414.379	0.15189065
414.591	0.15217444
414.804	0.1517732
415.016	0.15150208
415.229	0.1512315
415.441	0.15107729
415.654	0.15105214
415.866	0.15071739
416.079	0.15064906
416.291	0.15029338
416.504	0.15020357
416.716	0.15041538
416.928	0.15022667
417.141	0.14969059
417.353	0.14972468
417.566	0.14911515
417.778	0.14887546
417.99	0.14804065
418.203	0.14709166
418.415	0.14691323
418.627	0.1466208
418.839	0.14607698
419.052	0.14616031
419.264	0.14612781
419.476	0.14611012
419.688	0.1461539
419.901	0.14580452
420.113	0.14534701
420.325	0.14486689
420.537	0.14440266
420.749	0.144095
420.961	0.14376036
421.174	0.14332508
421.386	0.1426746
421.598	0.14258261
421.81	0.14238154
422.022	0.14213855
422.234	0.14162136
422.446	0.14108976
422.658	0.14085071
422.87	0.14053472
423.082	0.14032361
423.294	0.14001435
423.506	0.13936031
423.718	0.13910887
423.93	0.13869082
424.142	0.13803895
424.354	0.13763945
424.566	0.13714596
424.778	0.13672079
424.99	0.13628718
425.202	0.1356457
425.414	0.13534394
425.625	0.1351865
425.837	0.13472538
426.049	0.13424854
426.261	0.13369069
426.473	0.13322996
426.684	0.13270136
426.896	0.13240658
427.108	0.13175195
427.32	0.13141679
427.531	0.13082149
427.743	0.13053394
427.955	0.13016954
428.167	0.1296451
428.378	0.12888667
428.59	0.12845401
428.802	0.12803938
429.013	0.12750144
429.225	0.12699466
429.436	0.12640567
429.648	0.12608722
429.86	0.1257107
430.071	0.12521697
430.283	0.12448254
430.494	0.12394629
430.706	0.12342712
430.917	0.12288567
431.129	0.1222975
431.34	0.12180627
431.552	0.12138475
431.763	0.12064171
431.975	0.12021022
432.186	0.11950796
432.398	0.11902202
432.609	0.11825412
432.821	0.11773821
433.032	0.11717396
433.243	0.11677382
433.455	0.11629855
433.666	0.11590986
433.877	0.11548985
434.089	0.11503806
434.3	0.11446809
434.511	0.11377421
434.723	0.11327876
434.934	0.11285635
435.145	0.11221272
435.356	0.11162545
435.568	0.11131127
435.779	0.11092299
435.99	0.11029004
436.201	0.10983622
436.412	0.10926172
436.624	0.10897542
436.835	0.10861692
437.046	0.10818031
437.257	0.10757128
437.468	0.10729605
437.679	0.10665935
437.89	0.106102
438.101	0.10558284
438.312	0.10488205
438.523	0.1041438
438.734	0.10357111
438.945	0.10288616
439.156	0.10247619
439.367	0.10190876
439.578	0.10135361
439.789	0.10068771
440	0.10020783
440.211	0.09974849
440.422	0.09925547
440.633	0.09868393
440.844	0.0980058
441.055	0.0972125
441.266	0.09692135
441.477	0.0964312
441.687	0.09574696
441.898	0.09521262
442.109	0.09455552
442.32	0.09417412
442.531	0.09367728
442.741	0.09289178
442.952	0.09210202
443.163	0.09142867
443.374	0.09064922
443.584	0.09003681
443.795	0.08931622
444.006	0.0886695
444.216	0.08821216
444.427	0.08768803
444.638	0.08698117
444.848	0.08648493
445.059	0.08591208
445.27	0.08511516
445.48	0.08437787
445.691	0.08357507
445.901	0.08296026
446.112	0.08248809
446.323	0.08177676
446.533	0.0812047
446.744	0.08079995
446.954	0.08027647
447.165	0.07976802
447.375	0.07924687
447.586	0.07871879
447.796	0.0781922
448.006	0.07763413
448.217	0.07703412
448.427	0.07650243
448.638	0.07596665
448.848	0.07537188
449.058	0.07484865
449.269	0.07431525
449.479	0.07371008
449.689	0.07311283
449.9	0.07264413
450.11	0.07192795
450.32	0.07139383
450.531	0.07076142
450.741	0.07018444
450.951	0.06965309
451.161	0.0692
451.372	0.06851049
451.582	0.0681761
451.792	0.06759337
452.002	0.06699889
452.212	0.06658788
452.422	0.06599595
452.633	0.06550841
452.843	0.06519389
453.053	0.06465437
453.263	0.0641011
453.473	0.06367679
453.683	0.0632842
453.893	0.0628219
454.103	0.06240411
454.313	0.06183443
454.523	0.06136472
454.733	0.06105434
454.943	0.06065636
455.153	0.06013924
455.363	0.0596354
455.573	0.05897378
455.783	0.05860048
455.993	0.05801196
456.203	0.05758633
456.413	0.05703697
456.623	0.05665176
456.833	0.05626036
457.042	0.05587449
457.252	0.05529688
457.462	0.05490797
457.672	0.05446156
457.882	0.05414184
458.091	0.05355776
458.301	0.05302493
458.511	0.05263437
458.721	0.05216125
458.931	0.05177264
459.14	0.05132231
459.35	0.05097563
459.56	0.05059018
459.769	0.0502789
459.979	0.04986391
460.189	0.04961362
460.398	0.04926371
460.608	0.0488216
460.817	0.04834908
461.027	0.04800767
461.237	0.04765195
461.446	0.04727133
461.656	0.04689088
461.865	0.0464942
462.075	0.04612504
462.284	0.04576167
462.494	0.04547652
462.703	0.04518408
462.913	0.044758
463.122	0.04445968
463.332	0.04416063
463.541	0.04385553
463.751	0.04347397
463.96	0.04300632
464.169	0.04253173
464.379	0.04224275
464.588	0.04190153
464.797	0.04154835
465.007	0.04128807
465.216	0.04101184
465.425	0.0407672
465.635	0.04056813
465.844	0.04044794
466.053	0.04021723
466.263	0.03988868
466.472	0.03946022
466.681	0.03916538
466.89	0.03878521
467.099	0.03863287
467.309	0.03812224
467.518	0.0375844
467.727	0.03735759
467.936	0.0371451
468.145	0.03684467
468.354	0.03669342
468.563	0.03629671
468.772	0.03605056
468.982	0.03591134
469.191	0.03550741
469.4	0.03529796
469.609	0.03516199
469.818	0.03480472
470.027	0.03454039
470.236	0.03434811
470.445	0.03413684
470.654	0.03396911
470.863	0.03368977
471.072	0.03334206
471.28	0.03310167
471.489	0.03297377
471.698	0.03277788
471.907	0.03260742
472.116	0.03239535
472.325	0.03221713
472.534	0.03209681
472.743	0.0319013
472.951	0.03152945
473.16	0.03133897
473.369	0.03109618
473.578	0.03090984
473.786	0.03068706
473.995	0.030504
474.204	0.03029999
474.413	0.03018777
474.621	0.03004219
474.83	0.02987093
475.039	0.02969805
475.247	0.02949522
475.456	0.02934013
475.665	0.02913796
475.873	0.02900412
476.082	0.028756
476.291	0.02866208
476.499	0.02856286
476.708	0.0285039
476.916	0.02839791
477.125	0.02837804
477.333	0.02825035
477.542	0.02812966
477.75	0.02806985
477.959	0.02786956
478.167	0.02773352
478.376	0.02745089
478.584	0.02730317
478.793	0.02711986
479.001	0.02701138
479.209	0.02670394
479.418	0.02661164
479.626	0.02648776
479.834	0.02648499
480.043	0.0264031
480.251	0.02631486
480.459	0.02623847
480.668	0.02621194
480.876	0.0261642
481.084	0.02604012
481.293	0.02596102
481.501	0.02588067
481.709	0.02581644
481.917	0.02578954
482.125	0.02571421
482.334	0.0256504
482.542	0.02563294
482.75	0.02549528
482.958	0.02537662
483.166	0.02534024
483.374	0.02517352
483.583	0.02514247
483.791	0.0251064
483.999	0.0249874
484.207	0.02497485
484.415	0.0249625
484.623	0.02488395
484.831	0.02490234
485.039	0.02483475
485.247	0.02471438
485.455	0.02474206
485.663	0.02460425
485.871	0.0245314
486.079	0.02450594
486.287	0.0243782
486.495	0.02430346
486.702	0.02426166
486.91	0.02417224
487.118	0.02423112
487.326	0.02421044
487.534	0.02420071
487.742	0.02422365
487.95	0.02422851
488.157	0.02419794
488.365	0.02415228
488.573	0.02412362
488.781	0.02413079
488.988	0.02410651
489.196	0.02410478
489.404	0.02413122
489.612	0.02417856
489.819	0.02424392
490.027	0.02422125
490.235	0.02424532
490.442	0.02419616
490.65	0.02420357
490.857	0.02415346
491.065	0.02412954
491.273	0.02414128
491.48	0.02414883
491.688	0.02416304
491.895	0.02419113
492.103	0.02418855
492.31	0.02423337
492.518	0.02422655
492.725	0.02415121
492.933	0.02421868
493.14	0.02414147
493.348	0.02419098
493.555	0.02423801
493.763	0.02425772
493.97	0.0242791
494.177	0.02439032
494.385	0.02442612
494.592	0.02448041
494.8	0.02446178
495.007	0.02444212
495.214	0.02448321
495.422	0.02453832
495.629	0.0245367
495.836	0.02454541
496.043	0.02464842
496.251	0.02473876
496.458	0.02485331
496.665	0.02489527
496.872	0.02496362
497.08	0.02502233
497.287	0.02503123
497.494	0.02503071
497.701	0.02503702
497.908	0.0250103
498.115	0.02500131
498.322	0.02501028
498.53	0.02504826
498.737	0.02521245
498.944	0.0253035
499.151	0.02539846
499.358	0.0255
499.565	0.02562392
499.772	0.02572626
499.979	0.02582807
500.186	0.02588766
500.393	0.02595522
500.6	0.02606633
500.807	0.02617383
501.014	0.02626774
501.221	0.02637682
501.427	0.02646762
501.634	0.02647189
501.841	0.0265206
502.048	0.02656732
502.255	0.02666554
502.462	0.02673752
502.669	0.02680517
502.875	0.02687377
503.082	0.02692029
503.289	0.02701243
503.496	0.027042
503.702	0.02704084
503.909	0.02710674
504.116	0.02716782
504.323	0.02723056
504.529	0.02737738
504.736	0.02743029
504.943	0.02757382
505.149	0.0277035
505.356	0.02778991
505.563	0.02788326
505.769	0.0279969
505.976	0.02810043
506.182	0.02821967
506.389	0.02830467
506.595	0.02839276
506.802	0.02850306
507.008	0.0286587
507.215	0.02878845
507.421	0.02889684
507.628	0.02904267
507.834	0.02911764
508.041	0.02917968
508.247	0.02927943
508.454	0.02931852
508.66	0.02939908
508.866	0.0295123
509.073	0.02963449
509.279	0.02977925
509.486	0.02992136
509.692	0.03004765
509.898	0.03018297
510.105	0.03028925
510.311	0.03041056
510.517	0.03043342
510.723	0.03054547
510.93	0.03070352
511.136	0.0308926
511.342	0.03102895
511.548	0.03118109
511.754	0.03134265
511.961	0.03158018
512.167	0.03171869
512.373	0.03187448
512.579	0.03195325
512.785	0.03207907
512.991	0.03220473
513.197	0.03230475
513.404	0.03239555
513.61	0.03251308
513.816	0.03259589
514.022	0.03272112
514.228	0.03285874
514.434	0.03302716
514.64	0.03311272
514.846	0.03323655
515.052	0.03345919
515.258	0.03362644
515.464	0.03377502
515.669	0.03388187
515.875	0.03398498
516.081	0.03418739
516.287	0.03434126
516.493	0.03445547
516.699	0.0346142
516.905	0.0347133
517.111	0.03487606
517.316	0.03499436
517.522	0.03509093
517.728	0.0352891
517.934	0.03541761
518.139	0.03555681
518.345	0.03576015
518.551	0.03600209
518.757	0.03614551
518.962	0.03636296
519.168	0.03648928
519.374	0.03668422
519.579	0.03688932
519.785	0.03707533
519.991	0.03719078
520.196	0.03737825
520.402	0.03750929
520.607	0.03771485
520.813	0.03782025
521.018	0.03792345
521.224	0.03802531
521.429	0.03818728
521.635	0.03839728
521.84	0.03860553
522.046	0.03880507
522.251	0.03902333
522.457	0.03919371
522.662	0.03938709
522.868	0.03954738
523.073	0.03967312
523.279	0.03982232
523.484	0.03994463
523.689	0.04009849
523.895	0.04030409
524.1	0.04047368
524.305	0.04062366
524.511	0.04088185
524.716	0.04109052
524.921	0.04127015
525.126	0.04146957
525.332	0.04166545
525.537	0.04189182
525.742	0.04214618
525.947	0.04227395
526.153	0.04240127
526.358	0.04265772
526.563	0.04291298
526.768	0.04307903
526.973	0.04328121
527.178	0.04349787
527.383	0.04369522
527.588	0.04391731
527.794	0.0440497
527.999	0.04415582
528.204	0.04435722
528.409	0.04453261
528.614	0.0447326
528.819	0.04496487
529.024	0.04521474
529.229	0.04539202
529.434	0.04563764
529.639	0.04585913
529.843	0.04608402
530.048	0.04624879
530.253	0.04649266
530.458	0.04668561
530.663	0.04694442
530.868	0.04710003
531.073	0.04732676
531.278	0.04749344
531.482	0.04771904
531.687	0.04789658
531.892	0.04809199
532.097	0.04828386
532.302	0.04850304
532.506	0.04868072
532.711	0.04891041
532.916	0.04911314
533.12	0.0493124
533.325	0.04952997
533.53	0.04976932
533.734	0.05004728
533.939	0.0503055
534.144	0.05056344
534.348	0.05079199
534.553	0.05106438
534.757	0.05130493
534.962	0.051557
535.167	0.05179277
535.371	0.05198934
535.576	0.05223611
535.78	0.05246904
535.985	0.05264859
536.189	0.05286515
536.394	0.05304807
536.598	0.05327527
536.803	0.05356573
537.007	0.05374859
537.211	0.05400943
537.416	0.05423241
537.62	0.0544515
537.825	0.05466624
538.029	0.05490627
538.233	0.05509905
538.438	0.05534562
538.642	0.05556774
538.846	0.05591249
539.05	0.05613098
539.255	0.05638239
539.459	0.05660418
539.663	0.0568289
539.867	0.05706495
540.072	0.05732063
540.276	0.05749491
540.48	0.05778413
540.684	0.0580501
540.888	0.0583704
541.092	0.05865835
541.297	0.05894943
541.501	0.05917257
541.705	0.05940055
541.909	0.05960964
542.113	0.05986687
542.317	0.06004551
542.521	0.06027224
542.725	0.06049007
542.929	0.06073266
543.133	0.0610185
543.337	0.06131212
543.541	0.06154986
543.745	0.06178374
543.949	0.06203684
544.153	0.06229921
544.357	0.06254571
544.56	0.06279242
544.764	0.06305775
544.968	0.06329352
545.172	0.06356902
545.376	0.0638545
545.58	0.06410356
545.783	0.0644072
545.987	0.06466247
546.191	0.06490972
546.395	0.06522537
546.598	0.06552021
546.802	0.06575245
547.006	0.06604772
547.21	0.06628423
547.413	0.06658276
547.617	0.0668683
547.821	0.06709353
548.024	0.0673346
548.228	0.06756159
548.431	0.06777508
548.635	0.06802894
548.839	0.06824089
549.042	0.06846924
549.246	0.06875586
549.449	0.06903515
549.653	0.06935331
549.856	0.06967725
550.06	0.06996927
550.263	0.0702819
550.467	0.07059578
550.67	0.07086282
550.874	0.07110392
551.077	0.07138634
551.28	0.07168861
551.484	0.07194518
551.687	0.07213794
551.891	0.07237414
552.094	0.07260415
552.297	0.07291534
552.501	0.07319008
552.704	0.07342778
552.907	0.07373792
553.11	0.07406871
553.314	0.07440554
553.517	0.07469977
553.72	0.07496446
553.923	0.07526165
554.127	0.07549728
554.33	0.07570378
554.533	0.07601622
554.736	0.07623539
554.939	0.07654829
555.142	0.0768288
555.345	0.07708969
555.549	0.07736473
555.752	0.07768857
555.955	0.07794398
556.158	0.078231
556.361	0.07850754
556.564	0.07878513
556.767	0.07907663
556.97	0.07939623
557.173	0.07973641
557.376	0.08008686
557.579	0.08038959
557.782	0.08068399
557.984	0.08096996
558.187	0.08126196
558.39	0.08152795
558.593	0.08177183
558.796	0.08200736
558.999	0.0822919
559.202	0.0825542
559.404	0.08284457
559.607	0.08310468
559.81	0.08346647
560.013	0.08377172
560.216	0.08406222
560.418	0.08434065
560.621	0.08467138
560.824	0.08496094
561.026	0.08527654
561.229	0.08552621
561.432	0.08580296
561.634	0.08609113
561.837	0.08636843
562.04	0.08660577
562.242	0.08695088
562.445	0.08721728
562.647	0.08753751
562.85	0.08779381
563.053	0.08810129
563.255	0.08845111
563.458	0.08880251
563.66	0.08908112
563.863	0.08943603
564.065	0.08970843
564.268	0.09000595
