Data from 0_1_mm_pl_0pc_Absorbance__0__17-47-02-708.txt Node

Date: Wed Mar 01 17:47:02 CET 2023
User: Ange
Spectrometer: FLMT08341
Trigger mode: 0
Integration Time (sec): 1.000000E-2
Scans to average: 400
Electric dark correction enabled: true
Nonlinearity correction enabled: false
Boxcar width: 3
XAxis mode: Wavelengths
Number of Pixels in Spectrum: 3648
>>>>>Begin Spectral Data<<<<<
345.271	-0.00888976
345.487	-0.00415337
345.704	0.00028647
345.921	-0.00274917
346.137	-0.00748262
346.354	-0.00555139
346.571	-0.01546833
346.787	-0.05448834
347.004	0.11087231
347.22	0.10955646
347.437	0.00484387
347.653	-0.28567856
347.87	0.18110024
348.086	0.67219563
348.303	-0.2112349
348.519	0.09312861
348.736	0.07632529
348.952	0.07831073
349.169	0.07771349
349.385	0.08224631
349.601	0.08525838
349.818	0.08668992
350.034	0.08539531
350.251	0.08644392
350.467	0.08616607
350.683	0.08386442
350.9	0.085316
351.116	0.0834998
351.332	0.08161329
351.549	0.08445804
351.765	0.08768981
351.981	0.0890448
352.197	0.0934786
352.414	0.095409
352.63	0.09823802
352.846	0.10224042
353.062	0.10053509
353.278	0.0984643
353.495	0.09861771
353.711	0.09916221
353.927	0.09908502
354.143	0.09736206
354.359	0.09608126
354.575	0.09754298
354.792	0.10003847
355.008	0.10010972
355.224	0.09843565
355.44	0.0984704
355.656	0.09941395
355.872	0.09982315
356.088	0.10251541
356.304	0.10249046
356.52	0.10446372
356.736	0.10604394
356.952	0.10763542
357.168	0.10743958
357.384	0.10876301
357.6	0.10710803
357.816	0.10977941
358.032	0.11010457
358.248	0.11248281
358.464	0.1116912
358.679	0.11366966
358.895	0.11499816
359.111	0.11790687
359.327	0.1173707
359.543	0.11946182
359.759	0.1217178
359.974	0.12349221
360.19	0.12475221
360.406	0.12591091
360.622	0.1248943
360.838	0.12326905
361.053	0.12424728
361.269	0.12428024
361.485	0.12481977
361.701	0.12418169
361.916	0.12211513
362.132	0.12265217
362.348	0.12486209
362.563	0.12432731
362.779	0.12303769
362.995	0.12508704
363.21	0.12759895
363.426	0.12941936
363.641	0.1308895
363.857	0.1332148
364.073	0.13295825
364.288	0.13312962
364.504	0.13301717
364.719	0.13297883
364.935	0.13333129
365.15	0.13362078
365.366	0.13364557
365.581	0.13444825
365.797	0.13579103
366.012	0.13606331
366.228	0.13573568
366.443	0.13777529
366.658	0.13912846
366.874	0.13782535
367.089	0.14107941
367.305	0.1424529
367.52	0.14304828
367.735	0.14394112
367.951	0.14240661
368.166	0.14192413
368.381	0.14455332
368.597	0.14289526
368.812	0.14286323
369.027	0.14291098
369.243	0.14491143
369.458	0.14868007
369.673	0.1506418
369.888	0.15109729
370.104	0.15175669
370.319	0.15229838
370.534	0.15224721
370.749	0.15167033
370.964	0.15190156
371.179	0.15186043
371.395	0.15199052
371.61	0.15290983
371.825	0.15245907
372.04	0.15472956
372.255	0.15437025
372.47	0.15392744
372.685	0.15390022
372.9	0.15357583
373.115	0.15346161
373.33	0.15465525
373.545	0.15501219
373.76	0.1566271
373.975	0.15611564
374.19	0.15520939
374.405	0.1566722
374.62	0.15840656
374.835	0.15953176
375.05	0.15989171
375.265	0.16044946
375.48	0.16276251
375.695	0.16701569
375.91	0.16650057
376.125	0.16681482
376.339	0.16674459
376.554	0.16715599
376.769	0.16790739
376.984	0.16737219
377.199	0.16744369
377.414	0.1680771
377.628	0.16936148
377.843	0.17072364
378.058	0.17114408
378.273	0.17257081
378.487	0.17308637
378.702	0.17320064
378.917	0.17366519
379.131	0.17288602
379.346	0.1722128
379.561	0.17217889
379.775	0.17166745
379.99	0.17077588
380.205	0.17099038
380.419	0.17049494
380.634	0.17003916
380.848	0.17231363
381.063	0.1727848
381.278	0.17417853
381.492	0.17492504
381.707	0.17541082
381.921	0.176987
382.136	0.17930049
382.35	0.17887577
382.565	0.17917347
382.779	0.17951855
382.994	0.18047879
383.208	0.18006575
383.422	0.181773
383.637	0.18129922
383.851	0.1822725
384.066	0.18411697
384.28	0.18489296
384.494	0.18560706
384.709	0.18703881
384.923	0.18668519
385.137	0.18632204
385.352	0.1859705
385.566	0.1864357
385.78	0.18694011
385.995	0.18742575
386.209	0.18716175
386.423	0.18841451
386.637	0.19003389
386.852	0.19069742
387.066	0.19095465
387.28	0.19061236
387.494	0.19165351
387.708	0.19282875
387.923	0.19308458
388.137	0.1939645
388.351	0.19486975
388.565	0.19565329
388.779	0.19604218
388.993	0.19726925
389.207	0.19805252
389.421	0.19887032
389.635	0.19845888
389.85	0.19854438
390.064	0.19833338
390.278	0.19930533
390.492	0.19959403
390.706	0.19988351
390.92	0.1995946
391.134	0.2004841
391.348	0.20236472
391.561	0.20348713
391.775	0.20350403
391.989	0.2032639
392.203	0.20387149
392.417	0.20469222
392.631	0.20594157
392.845	0.2052841
393.059	0.20587584
393.273	0.20609663
393.486	0.20635268
393.7	0.20547469
393.914	0.20654509
394.128	0.20645464
394.342	0.20615504
394.555	0.20524426
394.769	0.20561123
394.983	0.20663713
395.197	0.20791709
395.41	0.20753078
395.624	0.20788072
395.838	0.20866119
396.051	0.21054613
396.265	0.21085087
396.479	0.21082774
396.692	0.21126027
396.906	0.21154183
397.12	0.21207036
397.333	0.21293647
397.547	0.21321302
397.76	0.21392063
397.974	0.21427424
398.187	0.21522674
398.401	0.21602248
398.614	0.21651585
398.828	0.21699181
399.041	0.21663651
399.255	0.21747961
399.468	0.21757309
399.682	0.21723762
399.895	0.21741771
400.109	0.21745914
400.322	0.21692311
400.536	0.21643781
400.749	0.21642489
400.962	0.21673821
401.176	0.21716056
401.389	0.21732376
401.602	0.21635029
401.816	0.21750196
402.029	0.21849588
402.242	0.2187111
402.456	0.21893779
402.669	0.21838805
402.882	0.21753723
403.095	0.21876827
403.309	0.21824029
403.522	0.21839312
403.735	0.21781662
403.948	0.21781722
404.161	0.21907362
404.375	0.21973342
404.588	0.21963143
404.801	0.21986871
405.014	0.21969485
405.227	0.22072335
405.44	0.22137206
405.653	0.22134227
405.866	0.22128408
406.079	0.2213443
406.293	0.22164966
406.506	0.22194561
406.719	0.2216126
406.932	0.22133099
407.145	0.22056007
407.358	0.22154187
407.571	0.22129363
407.784	0.22140229
407.996	0.22161964
408.209	0.22115157
408.422	0.22074915
408.635	0.22065766
408.848	0.22031265
409.061	0.21990515
409.274	0.21955127
409.487	0.2187105
409.7	0.21883424
409.912	0.21893722
410.125	0.21945578
410.338	0.21884403
410.551	0.21884471
410.764	0.21866108
410.976	0.21881015
411.189	0.21881671
411.402	0.21822804
411.615	0.21814699
411.827	0.21812255
412.04	0.21814601
412.253	0.21733064
412.465	0.21690183
412.678	0.21621865
412.891	0.21666855
413.103	0.21588739
413.316	0.21543825
413.529	0.21562477
413.741	0.21635431
413.954	0.21647256
414.166	0.21660536
414.379	0.21602251
414.591	0.21620428
414.804	0.21587909
415.016	0.21529623
415.229	0.21440863
415.441	0.21390736
415.654	0.21385433
415.866	0.21380313
416.079	0.21348707
416.291	0.21322187
416.504	0.21331328
416.716	0.2134775
416.928	0.21352811
417.141	0.2127416
417.353	0.21229152
417.566	0.21143883
417.778	0.21120241
417.99	0.21004473
418.203	0.20920967
418.415	0.20835308
418.627	0.20801539
418.839	0.2073916
419.052	0.20747703
419.264	0.20727104
419.476	0.20718005
419.688	0.20708595
419.901	0.20718714
420.113	0.20665192
420.325	0.2061298
420.537	0.20530085
420.749	0.20498231
420.961	0.20445624
421.174	0.20383254
421.386	0.20264163
421.598	0.20227844
421.81	0.20172594
422.022	0.20118558
422.234	0.20032813
422.446	0.19981421
422.658	0.19906511
422.87	0.19904157
423.082	0.19844758
423.294	0.19804405
423.506	0.19757295
423.718	0.19704439
423.93	0.19653468
424.142	0.19603487
424.354	0.19527326
424.566	0.19474207
424.778	0.19421796
424.99	0.19351845
425.202	0.19282747
425.414	0.19215942
425.625	0.19187864
425.837	0.19099935
426.049	0.1904999
426.261	0.18959827
426.473	0.18888702
426.684	0.18825978
426.896	0.18779851
427.108	0.18686315
427.32	0.18633562
427.531	0.1853999
427.743	0.18499878
427.955	0.1845164
428.167	0.18366617
428.378	0.1827488
428.59	0.18217257
428.802	0.18163309
429.013	0.18102742
429.225	0.18030743
429.436	0.17961833
429.648	0.17905073
429.86	0.17846961
430.071	0.17769944
430.283	0.17691005
430.494	0.17605024
430.706	0.17524048
430.917	0.17435903
431.129	0.17370264
431.34	0.17297234
431.552	0.17225246
431.763	0.17143296
431.975	0.17092557
432.186	0.17004136
432.398	0.16931101
432.609	0.16836061
432.821	0.16761969
433.032	0.16683717
433.243	0.16609907
433.455	0.16525276
433.666	0.16457473
433.877	0.1640195
434.089	0.16304375
434.3	0.16226466
434.511	0.16132072
434.723	0.1604231
434.934	0.15978024
435.145	0.1590256
435.356	0.15821069
435.568	0.15778065
435.779	0.15712978
435.99	0.15623928
436.201	0.1556051
436.412	0.15476085
436.624	0.15416522
436.835	0.15351601
437.046	0.15274757
437.257	0.15188992
437.468	0.15139141
437.679	0.15073706
437.89	0.14992572
438.101	0.14917929
438.312	0.14835724
438.523	0.14758006
438.734	0.14677202
438.945	0.14597275
439.156	0.14495467
439.367	0.14416055
439.578	0.14332923
439.789	0.14236178
440	0.14162044
440.211	0.14072583
440.422	0.13992436
440.633	0.1392457
440.844	0.13827787
441.055	0.13742209
441.266	0.13689014
441.477	0.13593831
441.687	0.13528992
441.898	0.13455113
442.109	0.13372962
442.32	0.13299759
442.531	0.13223639
442.741	0.13104687
442.952	0.13025036
443.163	0.12939594
443.374	0.12849104
443.584	0.12758712
443.795	0.12687746
444.006	0.12600703
444.216	0.12527086
444.427	0.12435637
444.638	0.12336933
444.848	0.12259662
445.059	0.12173079
445.27	0.1206909
445.48	0.11958991
445.691	0.11878887
445.901	0.11800883
446.112	0.11729667
446.323	0.11609452
446.533	0.11533766
446.744	0.11448769
446.954	0.11388608
447.165	0.11297204
447.375	0.11211089
447.586	0.11122531
447.796	0.11054456
448.006	0.10972252
448.217	0.10893818
448.427	0.1081014
448.638	0.10728866
448.848	0.10653104
449.058	0.10570669
449.269	0.10505302
449.479	0.10420732
449.689	0.1035733
449.9	0.10282864
450.11	0.10189357
450.32	0.10122827
450.531	0.10039592
450.741	0.09949602
450.951	0.09878905
451.161	0.09786275
451.372	0.09707871
451.582	0.0966234
451.792	0.0957043
452.002	0.0948569
452.212	0.09407389
452.422	0.09326146
452.633	0.09245255
452.843	0.09166474
453.053	0.09084457
453.263	0.0900796
453.473	0.08942258
453.683	0.08895752
453.893	0.08825268
454.103	0.08776734
454.313	0.08701761
454.523	0.08623887
454.733	0.08566914
454.943	0.08495031
455.153	0.08430873
455.363	0.08357556
455.573	0.08275905
455.783	0.08213016
455.993	0.08150592
456.203	0.08093385
456.413	0.08040378
456.623	0.07963514
456.833	0.07900662
457.042	0.07833509
457.252	0.07776581
457.462	0.07706957
457.672	0.07638536
457.882	0.0758294
458.091	0.0751843
458.301	0.07452024
458.511	0.07398228
458.721	0.07329681
458.931	0.07279171
459.14	0.07225427
459.35	0.07168009
459.56	0.07113082
459.769	0.07079388
459.979	0.07018235
460.189	0.06973858
460.398	0.06918774
460.608	0.06859712
460.817	0.06792755
461.027	0.06736473
461.237	0.06665875
461.446	0.06621388
461.656	0.06577077
461.865	0.06517272
462.075	0.0646119
462.284	0.06416056
462.494	0.0636236
462.703	0.06325823
462.913	0.06262856
463.122	0.0620277
463.332	0.06167405
463.541	0.06122121
463.751	0.0607362
463.96	0.06033049
464.169	0.05963774
464.379	0.05931022
464.588	0.05884989
464.797	0.05829071
465.007	0.05794887
465.216	0.05748722
465.425	0.05698679
465.635	0.05660085
465.844	0.05618933
466.053	0.05588342
466.263	0.05548541
466.472	0.05487165
466.681	0.05456204
466.89	0.05410293
467.099	0.0539144
467.309	0.05341575
467.518	0.05284627
467.727	0.05240456
467.936	0.05205333
468.145	0.05158396
468.354	0.05134717
468.563	0.05086142
468.772	0.05046102
468.982	0.05013961
469.191	0.04971991
469.4	0.04939585
469.609	0.04909974
469.818	0.0485885
470.027	0.04821812
470.236	0.04796552
470.445	0.04753219
470.654	0.0472125
470.863	0.04695001
471.072	0.04652005
471.28	0.0462728
471.489	0.04595227
471.698	0.04562749
471.907	0.04545128
472.116	0.04512794
472.325	0.0447927
472.534	0.04451382
472.743	0.04422272
472.951	0.04386554
473.16	0.0435782
473.369	0.04325204
473.578	0.04304104
473.786	0.04278825
473.995	0.04253444
474.204	0.04228882
474.413	0.0420669
474.621	0.04183511
474.83	0.041579
475.039	0.04135988
475.247	0.04113157
475.456	0.04096169
475.665	0.04069026
475.873	0.04047861
476.082	0.04019947
476.291	0.0400776
476.499	0.03991447
476.708	0.0397091
476.916	0.03955685
477.125	0.03940986
477.333	0.03923887
477.542	0.0391411
477.75	0.03900657
477.959	0.03878886
478.167	0.03864605
478.376	0.03836656
478.584	0.03811345
478.793	0.03795043
479.001	0.03767463
479.209	0.03735819
479.418	0.0371411
479.626	0.03689187
479.834	0.03679988
480.043	0.03673648
480.251	0.03651256
480.459	0.03642634
480.668	0.03634796
480.876	0.03628558
481.084	0.03614952
481.293	0.0360402
481.501	0.0359075
481.709	0.03581794
481.917	0.03573071
482.125	0.03555467
482.334	0.0353846
482.542	0.03528895
482.75	0.03510676
482.958	0.03491986
483.166	0.03480203
483.374	0.03467585
483.583	0.03464741
483.791	0.03456707
483.999	0.03449926
484.207	0.03450706
484.415	0.03452469
484.623	0.03449497
484.831	0.03440678
485.039	0.03434283
485.247	0.03430672
485.455	0.03420625
485.663	0.03405255
485.871	0.03395145
486.079	0.03387505
486.287	0.03375046
486.495	0.03363375
486.702	0.03349091
486.91	0.03342651
487.118	0.03345468
487.326	0.03337367
487.534	0.03334455
487.742	0.03334535
487.95	0.03333282
488.157	0.03334924
488.365	0.03323732
488.573	0.03310237
488.781	0.03307965
488.988	0.0330401
489.196	0.03304699
489.404	0.03300103
489.612	0.0329973
489.819	0.03306619
490.027	0.033067
490.235	0.03311264
490.442	0.03306938
490.65	0.03300498
490.857	0.03297667
491.065	0.03298842
491.273	0.03299566
491.48	0.03302718
491.688	0.0330303
491.895	0.03301611
492.103	0.03309303
492.31	0.033158
492.518	0.0331717
492.725	0.03314313
492.933	0.0331687
493.14	0.03312969
493.348	0.03321605
493.555	0.03316237
493.763	0.03315703
493.97	0.03311745
494.177	0.03320883
494.385	0.03324585
494.592	0.03324572
494.8	0.03320831
495.007	0.03324496
495.214	0.03333214
495.422	0.03338512
495.629	0.03339553
495.836	0.03340398
496.043	0.03348994
496.251	0.03360124
496.458	0.03368979
496.665	0.03370275
496.872	0.03378107
497.08	0.03378656
497.287	0.03383974
497.494	0.03388268
497.701	0.03391726
497.908	0.03397464
498.115	0.03405011
498.322	0.03412386
498.53	0.03422568
498.737	0.03432952
498.944	0.03442424
499.151	0.03445301
499.358	0.03450992
499.565	0.03454604
499.772	0.0346037
499.979	0.03470978
500.186	0.03482324
500.393	0.03483735
500.6	0.03498392
500.807	0.03508184
501.014	0.03518839
501.221	0.03531339
501.427	0.03540915
501.634	0.0354795
501.841	0.03563014
502.048	0.03574414
502.255	0.03587392
502.462	0.03594645
502.669	0.03601941
502.875	0.03613104
503.082	0.03619662
503.289	0.03634445
503.496	0.03637333
503.702	0.03644165
503.909	0.03658771
504.116	0.0366766
504.323	0.03677729
504.529	0.03688032
504.736	0.03691934
504.943	0.03711043
505.149	0.0371843
505.356	0.03729961
505.563	0.03742645
505.769	0.03756869
505.976	0.03770226
506.182	0.03784308
506.389	0.03791614
506.595	0.03807172
506.802	0.03819224
507.008	0.03831987
507.215	0.03843188
507.421	0.0385246
507.628	0.03868012
507.834	0.03879551
508.041	0.03887719
508.247	0.03899647
508.454	0.0391286
508.66	0.03920485
508.866	0.03935192
509.073	0.03947913
509.279	0.03960916
509.486	0.0397841
509.692	0.03996013
509.898	0.04010515
510.105	0.04027378
510.311	0.04043345
510.517	0.04053462
510.723	0.04070253
510.93	0.04088986
511.136	0.04104668
511.342	0.04121231
511.548	0.04137774
511.754	0.04152141
511.961	0.04172365
512.167	0.04190423
512.373	0.04206104
512.579	0.04222504
512.785	0.04236872
512.991	0.04249936
513.197	0.04273017
513.404	0.04289676
513.61	0.04301413
513.816	0.04308839
514.022	0.04322895
514.228	0.04338245
514.434	0.04357638
514.64	0.04366466
514.846	0.04382619
515.052	0.04402966
515.258	0.04426173
515.464	0.04442211
515.669	0.04459548
515.875	0.04478035
516.081	0.04501964
516.287	0.04515446
516.493	0.04532075
516.699	0.04547641
516.905	0.0456214
517.111	0.04582777
517.316	0.04599633
517.522	0.04613577
517.728	0.04634293
517.934	0.04651872
518.139	0.04674595
518.345	0.04696739
518.551	0.04716775
518.757	0.04733441
518.962	0.04756917
519.168	0.04777336
519.374	0.04802833
519.579	0.0482364
519.785	0.04844171
519.991	0.04863817
520.196	0.04887291
520.402	0.04909456
520.607	0.04934116
520.813	0.04954334
521.018	0.04975919
521.224	0.04992702
521.429	0.05012973
521.635	0.05034494
521.84	0.05043639
522.046	0.0506049
522.251	0.05075362
522.457	0.05090009
522.662	0.05113325
522.868	0.0513413
523.073	0.05152573
523.279	0.05176288
523.484	0.05199715
523.689	0.0522228
523.895	0.05252627
524.1	0.05276839
524.305	0.05297692
524.511	0.05321427
524.716	0.05345742
524.921	0.05367077
525.126	0.05389793
525.332	0.05408919
525.537	0.05432084
525.742	0.05455643
525.947	0.05477285
526.153	0.05501359
526.358	0.05532085
526.563	0.0555721
526.768	0.05578743
526.973	0.05598128
527.178	0.05622295
527.383	0.05643499
527.588	0.05666123
527.794	0.05680172
527.999	0.05699524
528.204	0.05721176
528.409	0.05742536
528.614	0.05766661
528.819	0.05791124
529.024	0.0581387
529.229	0.05838597
529.434	0.05866027
529.639	0.05891485
529.843	0.05918012
530.048	0.05937915
530.253	0.05966244
530.458	0.05995819
530.663	0.06019898
530.868	0.06042276
531.073	0.06066964
531.278	0.06094332
531.482	0.0612322
531.687	0.0614847
531.892	0.06170871
532.097	0.06196299
532.302	0.06222164
532.506	0.06244465
532.711	0.06264415
532.916	0.0629364
533.12	0.06315187
533.325	0.0633727
533.53	0.063657
533.734	0.06394676
533.939	0.06423657
534.144	0.06456294
534.348	0.06476768
534.553	0.06505918
534.757	0.06535147
534.962	0.06560156
535.167	0.06583845
535.371	0.06605864
535.576	0.06630773
535.78	0.06661255
535.985	0.06681298
536.189	0.06708354
536.394	0.06731143
536.598	0.06757144
536.803	0.06786912
537.007	0.06809203
537.211	0.06832325
537.416	0.06859947
537.62	0.06883619
537.825	0.06908199
538.029	0.06939281
538.233	0.06969516
538.438	0.06997816
538.642	0.07026089
538.846	0.07059295
539.05	0.07085094
539.255	0.07113263
539.459	0.07135541
539.663	0.07160609
539.867	0.07189244
540.072	0.0721804
540.276	0.07240623
540.48	0.07267856
540.684	0.07296393
540.888	0.07330473
541.092	0.07360092
541.297	0.07390105
541.501	0.07415022
541.705	0.0744387
541.909	0.07475057
542.113	0.07501526
542.317	0.07528843
542.521	0.07556351
542.725	0.07577185
542.929	0.0760406
543.133	0.07636126
543.337	0.07664952
543.541	0.07696251
543.745	0.07723385
543.949	0.07755113
544.153	0.07786365
544.357	0.07817305
544.56	0.07843578
544.764	0.07870776
544.968	0.07897682
545.172	0.07920296
545.376	0.07943366
545.58	0.07975512
545.783	0.0800556
545.987	0.08036742
546.191	0.08068221
546.395	0.08102083
546.598	0.08134513
546.802	0.08163432
547.006	0.08195325
547.21	0.08220565
547.413	0.0824821
547.617	0.08274934
547.821	0.08299085
548.024	0.0833007
548.228	0.0835311
548.431	0.08375927
548.635	0.0840649
548.839	0.08432061
549.042	0.08459791
549.246	0.08486229
549.449	0.08512351
549.653	0.08544343
549.856	0.0857091
550.06	0.08600155
550.263	0.08632508
550.467	0.08659927
550.67	0.08694504
550.874	0.0872507
551.077	0.08758545
551.28	0.0879676
551.484	0.08827291
551.687	0.08854829
551.891	0.0889186
552.094	0.08916965
552.297	0.08946317
552.501	0.08973908
552.704	0.08998591
552.907	0.09022174
553.11	0.09053092
553.314	0.09080875
553.517	0.09109977
553.72	0.09141163
553.923	0.09168113
554.127	0.09193674
554.33	0.09223312
554.533	0.09247838
554.736	0.09269005
554.939	0.09301405
555.142	0.09325367
555.345	0.09358306
555.549	0.09387865
555.752	0.09420812
555.955	0.09452446
556.158	0.09483424
556.361	0.09513443
556.564	0.09543854
556.767	0.0957323
556.97	0.09603872
557.173	0.09629406
557.376	0.09663353
557.579	0.09693351
557.782	0.09719822
557.984	0.09748782
558.187	0.09777121
558.39	0.09804875
558.593	0.09835343
558.796	0.09858099
558.999	0.09887454
559.202	0.09916735
559.404	0.09948325
559.607	0.09975696
559.81	0.10011386
560.013	0.10041609
560.216	0.10073796
560.418	0.10103947
560.621	0.10137829
560.824	0.10163594
561.026	0.10193437
561.229	0.10216511
561.432	0.10246885
561.634	0.10273958
561.837	0.10303483
562.04	0.10327067
562.242	0.10361268
562.445	0.1038505
562.647	0.10413369
562.85	0.10435257
563.053	0.1046736
563.255	0.10493644
563.458	0.1052539
563.66	0.10549669
563.863	0.10588899
564.065	0.10618364
