Data from 0_1_mm_pl_60pc_Absorbance__0__17-54-01-747.txt Node

Date: Wed Mar 01 17:54:01 CET 2023
User: Ange
Spectrometer: FLMT08341
Trigger mode: 0
Integration Time (sec): 1.000000E-2
Scans to average: 400
Electric dark correction enabled: true
Nonlinearity correction enabled: false
Boxcar width: 3
XAxis mode: Wavelengths
Number of Pixels in Spectrum: 3648
>>>>>Begin Spectral Data<<<<<
345.271	-0.01488915
345.487	-0.0001071
345.704	-0.01142455
345.921	-0.00574446
346.137	-0.0063362
346.354	-0.01159893
346.571	-0.01536674
346.787	0.01407274
347.004	0.10867754
347.22	-0.01699609
347.437	0.0487718
347.653	0.13395523
347.87	0.10704311
348.086	0.53737131
348.303	-0.34099922
348.519	0.08391212
348.736	0.07255422
348.952	0.06969186
349.169	0.06961043
349.385	0.07033686
349.601	0.07050265
349.818	0.06983964
350.034	0.0685147
350.251	0.06819223
350.467	0.06881256
350.683	0.06684715
350.9	0.06614457
351.116	0.06471889
351.332	0.06272689
351.549	0.06523082
351.765	0.06549008
351.981	0.06528813
352.197	0.06742422
352.414	0.06809278
352.63	0.06851531
352.846	0.06994978
353.062	0.06777748
353.278	0.06726726
353.495	0.06873473
353.711	0.06829579
353.927	0.0690367
354.143	0.06847615
354.359	0.06854824
354.575	0.06898336
354.792	0.06937492
355.008	0.06817094
355.224	0.06739419
355.44	0.0642449
355.656	0.06387868
355.872	0.06320658
356.088	0.06608943
356.304	0.06512264
356.52	0.06530272
356.736	0.06613208
356.952	0.0677845
357.168	0.06926731
357.384	0.0697848
357.6	0.06503034
357.816	0.06610621
358.032	0.06768126
358.248	0.06807741
358.464	0.06885366
358.679	0.06866108
358.895	0.068978
359.111	0.07142117
359.327	0.07006751
359.543	0.06877579
359.759	0.06811436
359.974	0.0691894
360.19	0.06819885
360.406	0.06744514
360.622	0.06639301
360.838	0.06672859
361.053	0.06674961
361.269	0.06754713
361.485	0.0665203
361.701	0.06676846
361.916	0.06691675
362.132	0.0689419
362.348	0.06912108
362.563	0.06940192
362.779	0.06934262
362.995	0.06965254
363.21	0.07118507
363.426	0.0714619
363.641	0.07062232
363.857	0.07198083
364.073	0.07202635
364.288	0.07113869
364.504	0.07127739
364.719	0.07045155
364.935	0.07033714
365.15	0.07041588
365.366	0.06933735
365.581	0.06978685
365.797	0.06998735
366.012	0.07015689
366.228	0.07068082
366.443	0.07167506
366.658	0.07171272
366.874	0.07128552
367.089	0.07139431
367.305	0.07200022
367.52	0.07190631
367.735	0.07133861
367.951	0.07123048
368.166	0.07212798
368.381	0.07365061
368.597	0.07407068
368.812	0.0737886
369.027	0.0740524
369.243	0.0744634
369.458	0.07482376
369.673	0.07464956
369.888	0.07403058
370.104	0.07272695
370.319	0.07319019
370.534	0.0732874
370.749	0.07374483
370.964	0.07460465
371.179	0.07402878
371.395	0.0742447
371.61	0.0754311
371.825	0.07543927
372.04	0.07587526
372.255	0.07496744
372.47	0.07351854
372.685	0.073496
372.9	0.07263766
373.115	0.07296847
373.33	0.07334599
373.545	0.07349948
373.76	0.07354267
373.975	0.07362455
374.19	0.07376924
374.405	0.07442551
374.62	0.0737969
374.835	0.07392255
375.05	0.07384993
375.265	0.07484651
375.48	0.07526773
375.695	0.07563616
375.91	0.07672754
376.125	0.07686359
376.339	0.07672673
376.554	0.07721694
376.769	0.07708775
376.984	0.07695961
377.199	0.07700816
377.414	0.07694698
377.628	0.07751066
377.843	0.07824384
378.058	0.07854003
378.273	0.07846599
378.487	0.0802512
378.702	0.08128611
378.917	0.08096812
379.131	0.08103954
379.346	0.08059891
379.561	0.08014085
379.775	0.08049065
379.99	0.07936051
380.205	0.078837
380.419	0.07891553
380.634	0.07834892
380.848	0.07852451
381.063	0.07882167
381.278	0.07942772
381.492	0.0792231
381.707	0.07977984
381.921	0.07927601
382.136	0.07981555
382.35	0.07997739
382.565	0.07960486
382.779	0.07953441
382.994	0.07975712
383.208	0.07894544
383.422	0.0802488
383.637	0.08076527
383.851	0.08165091
384.066	0.0827633
384.28	0.08212861
384.494	0.08295927
384.709	0.08349817
384.923	0.0829617
385.137	0.08248247
385.352	0.08277661
385.566	0.0823592
385.78	0.08308042
385.995	0.08259574
386.209	0.08264794
386.423	0.08347801
386.637	0.0840575
386.852	0.08367935
387.066	0.08407236
387.28	0.08378868
387.494	0.08435254
387.708	0.08496993
387.923	0.08497344
388.137	0.08496012
388.351	0.08498576
388.565	0.08494916
388.779	0.08535344
388.993	0.086224
389.207	0.08597294
389.421	0.08571074
389.635	0.08537731
389.85	0.08530422
390.064	0.08568503
390.278	0.08624405
390.492	0.08602917
390.706	0.08659091
390.92	0.08679644
391.134	0.0873893
391.348	0.0883661
391.561	0.08821418
391.775	0.08764888
391.989	0.08745833
392.203	0.08753404
392.417	0.08778566
392.631	0.08826755
392.845	0.08779287
393.059	0.08821908
393.273	0.08808154
393.486	0.08767384
393.7	0.0869477
393.914	0.08704647
394.128	0.08701935
394.342	0.08695097
394.555	0.08648126
394.769	0.08698302
394.983	0.08722743
395.197	0.08797384
395.41	0.08826282
395.624	0.08865513
395.838	0.08903057
396.051	0.08906304
396.265	0.08882216
396.479	0.08924507
396.692	0.08935456
396.906	0.08934133
397.12	0.08914859
397.333	0.08946216
397.547	0.08975313
397.76	0.09009402
397.974	0.09018102
398.187	0.09036518
398.401	0.0905676
398.614	0.09068149
398.828	0.09048632
399.041	0.09091463
399.255	0.09133385
399.468	0.09107559
399.682	0.0909856
399.895	0.09117259
400.109	0.0911206
400.322	0.0910549
400.536	0.09066622
400.749	0.09042768
400.962	0.09068205
401.176	0.09050395
401.389	0.09052176
401.602	0.0900572
401.816	0.09011061
402.029	0.090029
402.242	0.09001957
402.456	0.08982328
402.669	0.08976175
402.882	0.08942129
403.095	0.09016634
403.309	0.09031791
403.522	0.09060841
403.735	0.09065346
403.948	0.09076371
404.161	0.09124539
404.375	0.09146776
404.588	0.09102863
404.801	0.09112495
405.014	0.09100275
405.227	0.09141562
405.44	0.09169628
405.653	0.09180437
405.866	0.09140535
406.079	0.09182219
406.293	0.09149729
406.506	0.09162813
406.719	0.09167186
406.932	0.09161517
407.145	0.09157487
407.358	0.09201359
407.571	0.09151785
407.784	0.09152516
407.996	0.09166269
408.209	0.09083416
408.422	0.09039337
408.635	0.0902196
408.848	0.08982446
409.061	0.08957524
409.274	0.08978817
409.487	0.08936621
409.7	0.08947264
409.912	0.08961655
410.125	0.08945686
410.338	0.08956011
410.551	0.0897627
410.764	0.08933922
410.976	0.08922702
411.189	0.08925325
411.402	0.08904731
411.615	0.0887692
411.827	0.08837279
412.04	0.08839191
412.253	0.08822047
412.465	0.08820399
412.678	0.0882529
412.891	0.08841839
413.103	0.08818472
413.316	0.08834969
413.529	0.08835644
413.741	0.08856256
413.954	0.08845301
414.166	0.08829779
414.379	0.08793606
414.591	0.08796429
414.804	0.08768236
415.016	0.08729923
415.229	0.0865682
415.441	0.08670706
415.654	0.08669488
415.866	0.0867948
416.079	0.08648515
416.291	0.08657327
416.504	0.08668552
416.716	0.08688357
416.928	0.08642727
417.141	0.08606591
417.353	0.08606737
417.566	0.08609834
417.778	0.0857557
417.99	0.08533629
418.203	0.08520151
418.415	0.08539591
418.627	0.08533468
418.839	0.08476418
419.052	0.08490478
419.264	0.08478207
419.476	0.08467506
419.688	0.08465298
419.901	0.08398817
420.113	0.08374455
420.325	0.08359123
420.537	0.08318282
420.749	0.08321305
420.961	0.0830482
421.174	0.0827781
421.386	0.0828016
421.598	0.08263169
421.81	0.08251392
422.022	0.08205557
422.234	0.08173866
422.446	0.08159178
422.658	0.08125507
422.87	0.0811078
423.082	0.0808642
423.294	0.08069476
423.506	0.08053979
423.718	0.08018717
423.93	0.07976114
424.142	0.07938845
424.354	0.07909253
424.566	0.07877844
424.778	0.07852182
424.99	0.07837311
425.202	0.07809011
425.414	0.0778732
425.625	0.07788207
425.837	0.07745884
426.049	0.07717166
426.261	0.07669264
426.473	0.07629115
426.684	0.07609355
426.896	0.0757641
427.108	0.07528076
427.32	0.07514817
427.531	0.07490896
427.743	0.0747803
427.955	0.07474846
428.167	0.07429001
428.378	0.07381436
428.59	0.07387477
428.802	0.07368515
429.013	0.07337596
429.225	0.07299766
429.436	0.07265129
429.648	0.0724086
429.86	0.07241331
430.071	0.07200628
430.283	0.07160676
430.494	0.07135415
430.706	0.0710109
430.917	0.07064966
431.129	0.07051841
431.34	0.07020012
431.552	0.06980217
431.763	0.06932138
431.975	0.06901721
432.186	0.06866386
432.398	0.0682337
432.609	0.06788767
432.821	0.06774186
433.032	0.06753665
433.243	0.06747402
433.455	0.06721004
433.666	0.06710917
433.877	0.06717899
434.089	0.06676785
434.3	0.06627587
434.511	0.06596487
434.723	0.06567314
434.934	0.06535282
435.145	0.06509911
435.356	0.06469854
435.568	0.06461949
435.779	0.06432583
435.99	0.06403968
436.201	0.06371217
436.412	0.06342596
436.624	0.06328921
436.835	0.06292181
437.046	0.06255509
437.257	0.06237414
437.468	0.06213684
437.679	0.06175546
437.89	0.06141398
438.101	0.06103562
438.312	0.06077055
438.523	0.06045634
438.734	0.060168
438.945	0.05976186
439.156	0.05958007
439.367	0.05935044
439.578	0.05919108
439.789	0.05888478
440	0.05855592
440.211	0.05797597
440.422	0.05757045
440.633	0.05719079
440.844	0.05669696
441.055	0.0561595
441.266	0.05574419
441.477	0.05531915
441.687	0.05500767
441.898	0.05460514
442.109	0.05410892
442.32	0.05373689
442.531	0.05330204
442.741	0.05288878
442.952	0.05245971
443.163	0.05217298
443.374	0.05186715
443.584	0.0515418
443.795	0.05124293
444.006	0.05090845
444.216	0.05056067
444.427	0.05035011
444.638	0.05007481
444.848	0.04982142
445.059	0.0494425
445.27	0.04912946
445.48	0.04877995
445.691	0.0484184
445.901	0.04805283
446.112	0.04769626
446.323	0.04725288
446.533	0.04693609
446.744	0.04662813
446.954	0.04632126
447.165	0.04612212
447.375	0.045715
447.586	0.04545169
447.796	0.04523186
448.006	0.04501679
448.217	0.04470901
448.427	0.04432018
448.638	0.04393633
448.848	0.04368307
449.058	0.0433075
449.269	0.04291157
449.479	0.04253641
449.689	0.04223672
449.9	0.04195099
450.11	0.04171979
450.32	0.04144381
450.531	0.04106717
450.741	0.04078962
450.951	0.04047729
451.161	0.04011897
451.372	0.0398326
451.582	0.03952667
451.792	0.0391117
452.002	0.03890126
452.212	0.03854764
452.422	0.03830693
452.633	0.03805672
452.843	0.03772524
453.053	0.03740743
453.263	0.03728507
453.473	0.03700977
453.683	0.03675764
453.893	0.03643351
454.103	0.0362252
454.313	0.03605761
454.523	0.0357514
454.733	0.03535469
454.943	0.03506119
455.153	0.03485115
455.363	0.03444675
455.573	0.0341208
455.783	0.03381978
455.993	0.03350042
456.203	0.03346855
456.413	0.03332893
456.623	0.0330656
456.833	0.03305673
457.042	0.03272066
457.252	0.03241782
457.462	0.03217312
457.672	0.03180804
457.882	0.03144922
458.091	0.0312514
458.301	0.03085657
458.511	0.03062837
458.721	0.03046222
458.931	0.03013317
459.14	0.02989248
459.35	0.02966111
459.56	0.02945946
459.769	0.02930861
459.979	0.02917457
460.189	0.02888894
460.398	0.02873167
460.608	0.02856119
460.817	0.02838729
461.027	0.02809205
461.237	0.02785071
461.446	0.02762271
461.656	0.02750792
461.865	0.02726706
462.075	0.0269667
462.284	0.02665554
462.494	0.02643833
462.703	0.0261884
462.913	0.02601373
463.122	0.02586283
463.332	0.02562798
463.541	0.02551723
463.751	0.0254202
463.96	0.0253081
464.169	0.02511283
464.379	0.02491497
464.588	0.02463053
464.797	0.02453512
465.007	0.02429093
465.216	0.02411076
465.425	0.02392732
465.635	0.02377493
465.844	0.02359708
466.053	0.02334504
466.263	0.02325859
466.472	0.02315796
466.681	0.02299685
466.89	0.02287967
467.099	0.02277993
467.309	0.02259046
467.518	0.02245876
467.727	0.02235943
467.936	0.02212239
468.145	0.02199033
468.354	0.02176747
468.563	0.02157201
468.772	0.02136468
468.982	0.02131921
469.191	0.0210391
469.4	0.02094696
469.609	0.02073799
469.818	0.02066044
470.027	0.02049706
470.236	0.02038342
470.445	0.0202884
470.654	0.02012212
470.863	0.01996459
471.072	0.01990063
471.28	0.01965437
471.489	0.01951108
471.698	0.01936429
471.907	0.01909506
472.116	0.01903356
472.325	0.01892749
472.534	0.01877567
472.743	0.01878012
472.951	0.01865876
473.16	0.01851604
473.369	0.01844067
473.578	0.01838652
473.786	0.01825441
473.995	0.0181331
474.204	0.01803596
474.413	0.0180486
474.621	0.01810489
474.83	0.01807108
475.039	0.01790539
475.247	0.01781428
475.456	0.01780856
475.665	0.0176347
475.873	0.01749115
476.082	0.01740619
476.291	0.01731966
476.499	0.01733513
476.708	0.01733788
476.916	0.01718254
477.125	0.01710997
477.333	0.01695951
477.542	0.01673038
477.75	0.01656418
477.959	0.01644809
478.167	0.01628568
478.376	0.01618787
478.584	0.01618967
478.793	0.01622314
479.001	0.01624667
479.209	0.01621653
479.418	0.01613935
479.626	0.01608954
479.834	0.01604643
480.043	0.01590598
480.251	0.01585236
480.459	0.01575395
480.668	0.01570423
480.876	0.01566738
481.084	0.01554903
481.293	0.01557055
481.501	0.01558757
481.709	0.01556652
481.917	0.01554492
482.125	0.01554167
482.334	0.01545614
482.542	0.01554176
482.75	0.01539306
482.958	0.01526792
483.166	0.01522834
483.374	0.01522578
483.583	0.0152642
483.791	0.01524076
483.999	0.01517442
484.207	0.01521771
484.415	0.01524482
484.623	0.01520949
484.831	0.01517431
485.039	0.01511614
485.247	0.0151259
485.455	0.01508679
485.663	0.01503492
485.871	0.01505365
486.079	0.01505533
486.287	0.01510424
486.495	0.01510567
486.702	0.01512456
486.91	0.01511822
487.118	0.01518157
487.326	0.01516251
487.534	0.01511539
487.742	0.0149958
487.95	0.01494388
488.157	0.01492465
488.365	0.01501599
488.573	0.01497761
488.781	0.01493717
488.988	0.01498287
489.196	0.01499778
489.404	0.01504935
489.612	0.01504348
489.819	0.01501425
490.027	0.01497327
490.235	0.01500793
490.442	0.01498817
490.65	0.01503591
490.857	0.0150146
491.065	0.01500066
491.273	0.01495154
491.48	0.01503821
491.688	0.01505017
491.895	0.01506703
492.103	0.01506459
492.31	0.01506247
492.518	0.0151579
492.725	0.01518753
492.933	0.01520526
493.14	0.01522738
493.348	0.01521086
493.555	0.01527927
493.763	0.01526165
493.97	0.01523733
494.177	0.01528408
494.385	0.01527515
494.592	0.01536298
494.8	0.01550835
495.007	0.0154977
495.214	0.01556806
495.422	0.01562
495.629	0.01560891
495.836	0.0156638
496.043	0.01565461
496.251	0.015672
496.458	0.01576281
496.665	0.01585618
496.872	0.01590257
497.08	0.01603483
497.287	0.01613591
497.494	0.01620306
497.701	0.01621142
497.908	0.01622975
498.115	0.01625836
498.322	0.01632793
498.53	0.0162974
498.737	0.01632387
498.944	0.01640372
499.151	0.01646733
499.358	0.01651974
499.565	0.01653312
499.772	0.01657849
499.979	0.01674098
500.186	0.01677269
500.393	0.01677469
500.6	0.0168174
500.807	0.01687978
501.014	0.01698372
501.221	0.01701283
501.427	0.01699354
501.634	0.01706987
501.841	0.01715257
502.048	0.01722677
502.255	0.01728291
502.462	0.01735063
502.669	0.01741309
502.875	0.0174988
503.082	0.01757978
503.289	0.01765499
503.496	0.01773501
503.702	0.01783019
503.909	0.01790981
504.116	0.01799581
504.323	0.01800074
504.529	0.01803681
504.736	0.01811767
504.943	0.01816477
505.149	0.018215
505.356	0.01830105
505.563	0.01837065
505.769	0.01853435
505.976	0.01867499
506.182	0.01872262
506.389	0.01882321
506.595	0.01893758
506.802	0.01896891
507.008	0.01910248
507.215	0.01914164
507.421	0.01914769
507.628	0.01923891
507.834	0.0192877
508.041	0.01932483
508.247	0.01942951
508.454	0.01949322
508.66	0.01958704
508.866	0.01972105
509.073	0.01983132
509.279	0.01995234
509.486	0.02006545
509.692	0.02017979
509.898	0.02026294
510.105	0.02037345
510.311	0.02049649
510.517	0.02056988
510.723	0.0206504
510.93	0.0207742
511.136	0.02087875
511.342	0.02095477
511.548	0.02105504
511.754	0.02115359
511.961	0.02127745
512.167	0.02141282
512.373	0.02148961
512.579	0.02155502
512.785	0.02168679
512.991	0.02179291
513.197	0.02186953
513.404	0.02193515
513.61	0.02206465
513.816	0.022181
514.022	0.02232536
514.228	0.02240205
514.434	0.02254271
514.64	0.02263241
514.846	0.02280353
515.052	0.02286123
515.258	0.02299192
515.464	0.02307001
515.669	0.02325822
515.875	0.02335087
516.081	0.02350214
516.287	0.02356219
516.493	0.02371172
516.699	0.02379885
516.905	0.02391857
517.111	0.02399043
517.316	0.02409041
517.522	0.02419437
517.728	0.02441888
517.934	0.02452825
518.139	0.02467987
518.345	0.02482242
518.551	0.02495965
518.757	0.02509685
518.962	0.02524641
519.168	0.02528542
519.374	0.02540702
519.579	0.02553978
519.785	0.02566286
519.991	0.02579271
520.196	0.02592134
520.402	0.02603118
520.607	0.02621496
520.813	0.02639448
521.018	0.02650752
521.224	0.02666948
521.429	0.02680633
521.635	0.0269435
521.84	0.02706396
522.046	0.02716984
522.251	0.02724577
522.457	0.02738239
522.662	0.02750934
522.868	0.02761927
523.073	0.02778451
523.279	0.02795547
523.484	0.02809399
523.689	0.02830176
523.895	0.02843656
524.1	0.02857268
524.305	0.02871993
524.511	0.02884328
524.716	0.02897242
524.921	0.02911337
525.126	0.02917673
525.332	0.02934126
525.537	0.02953527
525.742	0.02973722
525.947	0.02994144
526.153	0.03010513
526.358	0.03033215
526.563	0.03053931
526.768	0.03070397
526.973	0.03078083
527.178	0.03096213
527.383	0.03108672
527.588	0.0312517
527.794	0.03132721
527.999	0.03149384
528.204	0.03168731
528.409	0.03185549
528.614	0.03193627
528.819	0.0320856
529.024	0.03223113
529.229	0.03241635
529.434	0.0325418
529.639	0.03260937
529.843	0.03282053
530.048	0.03303416
530.253	0.03322771
530.458	0.03343068
530.663	0.03363652
530.868	0.03383844
531.073	0.03406973
531.278	0.03425447
531.482	0.03440672
531.687	0.03457529
531.892	0.0347549
532.097	0.03492649
532.302	0.03511389
532.506	0.03533743
532.711	0.03549969
532.916	0.03572419
533.12	0.03590527
533.325	0.03607951
533.53	0.03625736
533.734	0.03646286
533.939	0.03663721
534.144	0.03682704
534.348	0.03696953
534.553	0.03714415
534.757	0.03728204
534.962	0.03746248
535.167	0.03763011
535.371	0.03778948
535.576	0.0380202
535.78	0.03825076
535.985	0.03847872
536.189	0.03874586
536.394	0.03893174
536.598	0.0391354
536.803	0.03938079
537.007	0.03958898
537.211	0.03979261
537.416	0.03994726
537.62	0.04016425
537.825	0.04036818
538.029	0.04058464
538.233	0.0408009
538.438	0.04096524
538.642	0.04115156
538.846	0.04144904
539.05	0.04163251
539.255	0.04186859
539.459	0.0420884
539.663	0.04226047
539.867	0.04249111
540.072	0.04271765
540.276	0.0428773
540.48	0.04307396
540.684	0.04326169
540.888	0.04345036
541.092	0.04366772
541.297	0.0438733
541.501	0.04411052
541.705	0.04436241
541.909	0.04460166
542.113	0.04483149
542.317	0.0450678
542.521	0.04525867
542.725	0.04551562
542.929	0.04573581
543.133	0.04594477
543.337	0.04614985
543.541	0.04637994
543.745	0.04664355
543.949	0.04691586
544.153	0.04711839
544.357	0.04737297
544.56	0.04761503
544.764	0.04787506
544.968	0.04808065
545.172	0.04824513
545.376	0.04847604
545.58	0.04871929
545.783	0.04889152
545.987	0.04908151
546.191	0.04930295
546.395	0.04957194
546.598	0.04986121
546.802	0.05009714
547.006	0.05029536
547.21	0.05059506
547.413	0.05084319
547.617	0.05111087
547.821	0.0513448
548.024	0.05158363
548.228	0.05178723
548.431	0.05205393
548.635	0.05229665
548.839	0.05258228
549.042	0.05285814
549.246	0.05310976
549.449	0.05335831
549.653	0.05367056
549.856	0.05391603
550.06	0.05414114
550.263	0.05442333
550.467	0.05462522
550.67	0.05487431
550.874	0.0550953
551.077	0.05529994
551.28	0.05556397
551.484	0.05581126
551.687	0.05600891
551.891	0.05627204
552.094	0.05654993
552.297	0.05686735
552.501	0.05719612
552.704	0.05748486
552.907	0.05773287
553.11	0.05803606
553.314	0.05830944
553.517	0.05855846
553.72	0.05881523
553.923	0.05904902
554.127	0.05930689
554.33	0.05958652
554.533	0.05983738
554.736	0.06010705
554.939	0.06036874
555.142	0.06061307
555.345	0.06086955
555.549	0.0611432
555.752	0.06141908
555.955	0.0616899
556.158	0.06194486
556.361	0.06226418
556.564	0.06253022
556.767	0.06286689
556.97	0.06314708
557.173	0.06341794
557.376	0.06368518
557.579	0.0639924
557.782	0.06425124
557.984	0.06458203
558.187	0.06484048
558.39	0.06508767
558.593	0.06536931
558.796	0.06565142
558.999	0.06590424
559.202	0.06620723
559.404	0.06642748
559.607	0.06672158
559.81	0.06707077
560.013	0.06737452
560.216	0.06767855
560.418	0.06796797
560.621	0.06828867
560.824	0.06863841
561.026	0.06892365
561.229	0.06919459
561.432	0.06951675
561.634	0.06981245
561.837	0.07011248
562.04	0.07035088
562.242	0.07066289
562.445	0.07093281
562.647	0.07122937
562.85	0.07150074
563.053	0.07181608
563.255	0.07214791
563.458	0.07245305
563.66	0.07271588
563.863	0.07302123
564.065	0.07332107
