Data from 1_mm_pl_70pc_Absorbance__0__17-01-44-283.txt Node

Date: Wed Mar 08 17:01:44 CET 2023
User: Ange
Spectrometer: FLMT08341
Trigger mode: 0
Integration Time (sec): 1.000000E-2
Scans to average: 400
Electric dark correction enabled: true
Nonlinearity correction enabled: false
Boxcar width: 3
XAxis mode: Wavelengths
Number of Pixels in Spectrum: 3648
>>>>>Begin Spectral Data<<<<<
345.271	0.01273335
345.487	0.00593478
345.704	0.0002436
345.921	-0.00533464
346.137	0.00446431
346.354	-0.00749573
346.571	-0.00894625
346.787	-0.06843109
347.004	-0.02919761
347.22	-0.04954925
347.437	0.078164
347.653	0.35033196
347.87	-0.16981498
348.086	-0.24366836
348.303	0.16209892
348.519	0.25211376
348.736	0.26520354
348.952	0.2848332
349.169	0.28498038
349.385	0.29358819
349.601	0.29110455
349.818	0.2893049
350.034	0.28694467
350.251	0.28267014
350.467	0.2835499
350.683	0.27760039
350.9	0.27620474
351.116	0.27185355
351.332	0.27056154
351.549	0.27949848
351.765	0.28782482
351.981	0.29128474
352.197	0.30373686
352.414	0.31395833
352.63	0.32151025
352.846	0.33007994
353.062	0.32498763
353.278	0.31802673
353.495	0.32529643
353.711	0.32554455
353.927	0.3256263
354.143	0.32819822
354.359	0.32370141
354.575	0.32202625
354.792	0.33236219
355.008	0.32505279
355.224	0.32105791
355.44	0.31758812
355.656	0.31477967
355.872	0.31958731
356.088	0.33626865
356.304	0.33622876
356.52	0.33836777
356.736	0.34305578
356.952	0.34732959
357.168	0.35028371
357.384	0.35425678
357.6	0.34379276
357.816	0.3502845
358.032	0.35537262
358.248	0.36343531
358.464	0.36540038
358.679	0.36996759
358.895	0.36823375
359.111	0.37428845
359.327	0.36796386
359.543	0.36977418
359.759	0.37237235
359.974	0.37138387
360.19	0.37055305
360.406	0.37576148
360.622	0.37097587
360.838	0.36991646
361.053	0.37265897
361.269	0.37269474
361.485	0.37523841
361.701	0.37666674
361.916	0.37145386
362.132	0.37411279
362.348	0.37786237
362.563	0.37839882
362.779	0.37639404
362.995	0.38017394
363.21	0.38376414
363.426	0.38711205
363.641	0.38835107
363.857	0.39196618
364.073	0.38958722
364.288	0.38904091
364.504	0.39367935
364.719	0.39532081
364.935	0.39568253
365.15	0.39784577
365.366	0.39926859
365.581	0.40594616
365.797	0.40800052
366.012	0.40461483
366.228	0.40336738
366.443	0.41002133
366.658	0.41168598
366.874	0.40812598
367.089	0.4077951
367.305	0.41000272
367.52	0.41150485
367.735	0.41097049
367.951	0.40617065
368.166	0.40886076
368.381	0.41639627
368.597	0.41617913
368.812	0.4198457
369.027	0.42323742
369.243	0.42756043
369.458	0.43780607
369.673	0.43934129
369.888	0.43846078
370.104	0.43779788
370.319	0.43919694
370.534	0.43645493
370.749	0.43658023
370.964	0.43503704
371.179	0.4337742
371.395	0.43248213
371.61	0.43764454
371.825	0.43418972
372.04	0.4382024
372.255	0.43752081
372.47	0.43629054
372.685	0.43432969
372.9	0.43607371
373.115	0.43306954
373.33	0.43663996
373.545	0.4363012
373.76	0.43844014
373.975	0.43748659
374.19	0.43875424
374.405	0.44001708
374.62	0.44525024
374.835	0.44833152
375.05	0.44983322
375.265	0.45123823
375.48	0.45360287
375.695	0.46168952
375.91	0.46025458
376.125	0.45642711
376.339	0.4517699
376.554	0.45273766
376.769	0.45422939
376.984	0.45492485
377.199	0.45428375
377.414	0.456505
377.628	0.46189822
377.843	0.46637164
378.058	0.46745348
378.273	0.46853088
378.487	0.47104303
378.702	0.4716256
378.917	0.47248482
379.131	0.47052512
379.346	0.46785878
379.561	0.46632877
379.775	0.4647275
379.99	0.46023481
380.205	0.45720627
380.419	0.45520106
380.634	0.4512271
380.848	0.45444661
381.063	0.45567788
381.278	0.4598553
381.492	0.45950918
381.707	0.46317389
381.921	0.4642705
382.136	0.46940509
382.35	0.46741386
382.565	0.46638787
382.779	0.46576809
382.994	0.46822088
383.208	0.46661068
383.422	0.47006398
383.637	0.47096215
383.851	0.47522307
384.066	0.47775853
384.28	0.4788282
384.494	0.48002454
384.709	0.48211183
384.923	0.48239343
385.137	0.47978149
385.352	0.47942249
385.566	0.48046008
385.78	0.4797201
385.995	0.47911521
386.209	0.47749905
386.423	0.47920082
386.637	0.48216495
386.852	0.47881581
387.066	0.47765047
387.28	0.47684038
387.494	0.47963111
387.708	0.48119924
387.923	0.47997212
388.137	0.48172292
388.351	0.48483626
388.565	0.48740685
388.779	0.4890688
388.993	0.49217182
389.207	0.49317851
389.421	0.49383872
389.635	0.49151379
389.85	0.49043166
390.064	0.4902233
390.278	0.49120915
390.492	0.48994849
390.706	0.48988303
390.92	0.49046246
391.134	0.49320991
391.348	0.49813042
391.561	0.49777708
391.775	0.49664304
391.989	0.49436345
392.203	0.4950745
392.417	0.4958997
392.631	0.49795919
392.845	0.49553549
393.059	0.49789659
393.273	0.49738673
393.486	0.49707214
393.7	0.49526411
393.914	0.49683869
394.128	0.49521926
394.342	0.49363552
394.555	0.49067753
394.769	0.49158415
394.983	0.4932996
395.197	0.4953213
395.41	0.49479155
395.624	0.49514592
395.838	0.49608968
396.051	0.49999921
396.265	0.49846438
396.479	0.4996507
396.692	0.49945891
396.906	0.49753355
397.12	0.49662825
397.333	0.49803202
397.547	0.49598396
397.76	0.498432
397.974	0.49770085
398.187	0.49895794
398.401	0.50104964
398.614	0.50136157
398.828	0.50118305
399.041	0.50174122
399.255	0.501626
399.468	0.50165246
399.682	0.50121989
399.895	0.50189247
400.109	0.50162074
400.322	0.50075027
400.536	0.49899856
400.749	0.50059803
400.962	0.50079054
401.176	0.49976312
401.389	0.49856886
401.602	0.49677308
401.816	0.49775006
402.029	0.49900852
402.242	0.49655773
402.456	0.49612297
402.669	0.49510181
402.882	0.49299588
403.095	0.49547664
403.309	0.49472901
403.522	0.49517948
403.735	0.49498201
403.948	0.49502163
404.161	0.49837995
404.375	0.49922087
404.588	0.49861994
404.801	0.49830788
405.014	0.49666567
405.227	0.4985397
405.44	0.49911416
405.653	0.49835537
405.866	0.49688259
406.079	0.4961096
406.293	0.49570064
406.506	0.4954407
406.719	0.4938421
406.932	0.49214289
407.145	0.48945666
407.358	0.49152675
407.571	0.49021727
407.784	0.49077183
407.996	0.49116599
408.209	0.4894406
408.422	0.48862373
408.635	0.4893333
408.848	0.48856895
409.061	0.48707715
409.274	0.48566218
409.487	0.48456368
409.7	0.48514582
409.912	0.48548648
410.125	0.48474687
410.338	0.48390888
410.551	0.48437057
410.764	0.48405591
410.976	0.4839165
411.189	0.48357981
411.402	0.4816741
411.615	0.48185483
411.827	0.48135495
412.04	0.48094823
412.253	0.47991675
412.465	0.4786585
412.678	0.47743123
412.891	0.47866439
413.103	0.4758878
413.316	0.47452172
413.529	0.47471505
413.741	0.47516803
413.954	0.47505838
414.166	0.47459705
414.379	0.47317783
414.591	0.47399998
414.804	0.47307193
415.016	0.47176547
415.229	0.47016927
415.441	0.46854783
415.654	0.4681382
415.866	0.46750177
416.079	0.46723624
416.291	0.46650652
416.504	0.46696756
416.716	0.46649739
416.928	0.46648667
417.141	0.46503275
417.353	0.46476444
417.566	0.46258891
417.778	0.46250937
417.99	0.45993868
418.203	0.45859976
418.415	0.45759455
418.627	0.45759784
418.839	0.45636366
419.052	0.45696149
419.264	0.455787
419.476	0.45585538
419.688	0.45545688
419.901	0.45477646
420.113	0.45333578
420.325	0.45206162
420.537	0.4499997
420.749	0.44938029
420.961	0.44870301
421.174	0.44731351
421.386	0.44584628
421.598	0.44468885
421.81	0.44369766
422.022	0.44254432
422.234	0.44143731
422.446	0.43988966
422.658	0.43895077
422.87	0.43842409
423.082	0.43765251
423.294	0.43681515
423.506	0.43629775
423.718	0.43524458
423.93	0.43369656
424.142	0.43233036
424.354	0.43097671
424.566	0.42986421
424.778	0.4288026
424.99	0.42767297
425.202	0.42632928
425.414	0.42566315
425.625	0.42526249
425.837	0.42338356
426.049	0.42246625
426.261	0.42097007
426.473	0.41935473
426.684	0.41818063
426.896	0.4177203
427.108	0.41589512
427.32	0.41571447
427.531	0.41457249
427.743	0.41387619
427.955	0.4138175
428.167	0.41245865
428.378	0.41070175
428.59	0.40980646
428.802	0.40848859
429.013	0.40706689
429.225	0.40552747
429.436	0.40362949
429.648	0.40320177
429.86	0.40245607
430.071	0.40146706
430.283	0.40040208
430.494	0.39914474
430.706	0.39819361
430.917	0.39692389
431.129	0.39548963
431.34	0.39387489
431.552	0.39259136
431.763	0.39105303
431.975	0.39016024
432.186	0.38847116
432.398	0.38758817
432.609	0.38545627
432.821	0.38435876
433.032	0.38327535
433.243	0.38205273
433.455	0.38071812
433.666	0.37986331
433.877	0.37873215
434.089	0.37774145
434.3	0.37612262
434.511	0.37425951
434.723	0.3729897
434.934	0.37130157
435.145	0.36960823
435.356	0.36776162
435.568	0.36644413
435.779	0.36513591
435.99	0.36337604
436.201	0.3619846
436.412	0.36054278
436.624	0.3595978
436.835	0.35869853
437.046	0.35760735
437.257	0.35636536
437.468	0.35604948
437.679	0.35500304
437.89	0.35405903
438.101	0.3529895
438.312	0.35164737
438.523	0.35041446
438.734	0.34935649
438.945	0.34778746
439.156	0.34600621
439.367	0.34466484
439.578	0.34341709
439.789	0.34175928
440	0.34073727
440.211	0.33911472
440.422	0.33784213
440.633	0.3367893
440.844	0.33532385
441.055	0.33378613
441.266	0.33275171
441.477	0.33096691
441.687	0.32978487
441.898	0.32856929
442.109	0.32716631
442.32	0.32593533
442.531	0.32436523
442.741	0.32245681
442.952	0.32112981
443.163	0.31975359
443.374	0.31821697
443.584	0.31667115
443.795	0.31528161
444.006	0.3140566
444.216	0.31291475
444.427	0.3113177
444.638	0.31002196
444.848	0.30874326
445.059	0.30760044
445.27	0.3060872
445.48	0.3044992
445.691	0.30346373
445.901	0.30254699
446.112	0.30119733
446.323	0.29966441
446.533	0.29834405
446.744	0.29697772
446.954	0.29577364
447.165	0.29426425
447.375	0.2928888
447.586	0.29156826
447.796	0.29053457
448.006	0.28913738
448.217	0.28834009
448.427	0.28706959
448.638	0.28580763
448.848	0.28444018
449.058	0.28304164
449.269	0.28172236
449.479	0.28063467
449.689	0.27914311
449.9	0.27798367
450.11	0.2767465
450.32	0.27583365
450.531	0.27472167
450.741	0.27342439
450.951	0.27215318
451.161	0.2709811
451.372	0.26976198
451.582	0.26899469
451.792	0.26763913
452.002	0.26636672
452.212	0.2651348
452.422	0.26398395
452.633	0.26256355
452.843	0.26174098
453.053	0.25999178
453.263	0.25888883
453.473	0.25773569
453.683	0.25691073
453.893	0.25568171
454.103	0.25487026
454.313	0.25358864
454.523	0.25265774
454.733	0.2516195
454.943	0.25075038
455.153	0.24949607
455.363	0.24838719
455.573	0.24707057
455.783	0.24592226
455.993	0.24465686
456.203	0.24363599
456.413	0.24256447
456.623	0.24141585
456.833	0.2407074
457.042	0.23972616
457.252	0.23880182
457.462	0.23795508
457.672	0.23698431
457.882	0.23588443
458.091	0.23485159
458.301	0.23363493
458.511	0.23274681
458.721	0.23156401
458.931	0.23060703
459.14	0.22980801
459.35	0.22909836
459.56	0.22839025
459.769	0.22773027
459.979	0.22691483
460.189	0.22632251
460.398	0.22538687
460.608	0.22454255
460.817	0.22366995
461.027	0.22292034
461.237	0.22197442
461.446	0.22115971
461.656	0.22042269
461.865	0.21977498
462.075	0.21891408
462.284	0.21826034
462.494	0.21739578
462.703	0.21655565
462.913	0.21590517
463.122	0.21510348
463.332	0.21438992
463.541	0.2137443
463.751	0.21306472
463.96	0.21242826
464.169	0.21192652
464.379	0.21133849
464.588	0.21072035
464.797	0.21015585
465.007	0.20963311
465.216	0.20912011
465.425	0.20861019
465.635	0.20802371
465.844	0.20750061
466.053	0.20702314
466.263	0.20643023
466.472	0.2058191
466.681	0.20527659
466.89	0.20483924
467.099	0.20444597
467.309	0.20385243
467.518	0.20350519
467.727	0.20324397
467.936	0.20274314
468.145	0.20227557
468.354	0.20191879
468.563	0.20146873
468.772	0.20102343
468.982	0.20057793
469.191	0.2002233
469.4	0.19990014
469.609	0.19955955
469.818	0.19922927
470.027	0.19886899
470.236	0.19868453
470.445	0.19832193
470.654	0.19776852
470.863	0.19743245
471.072	0.19712212
471.28	0.19669379
471.489	0.19650594
471.698	0.19620423
471.907	0.19592258
472.116	0.19583706
472.325	0.19568003
472.534	0.19552234
472.743	0.19528855
472.951	0.19515768
473.16	0.19497736
473.369	0.19482747
473.578	0.19465313
473.786	0.19448722
473.995	0.19430633
474.204	0.19437156
474.413	0.19407094
474.621	0.19408682
474.83	0.19419074
475.039	0.19404596
475.247	0.19399175
475.456	0.1940141
475.665	0.19389505
475.873	0.19396509
476.082	0.19368366
476.291	0.19359589
476.499	0.19373002
476.708	0.1936805
476.916	0.19369142
477.125	0.19378
477.333	0.19376523
477.542	0.19398408
477.75	0.19393566
477.959	0.19399382
478.167	0.19413949
478.376	0.1941417
478.584	0.19418055
478.793	0.19430889
479.001	0.19437004
479.209	0.19445451
479.418	0.19449276
479.626	0.19459756
479.834	0.19477603
480.043	0.19490746
480.251	0.1951291
480.459	0.19538596
480.668	0.19567418
480.876	0.19594555
481.084	0.19619281
481.293	0.19644212
481.501	0.19670558
481.709	0.19695708
481.917	0.1971625
482.125	0.19743293
482.334	0.19763976
482.542	0.197954
482.75	0.19825141
482.958	0.19865166
483.166	0.1990109
483.374	0.19943506
483.583	0.19981015
483.791	0.2002152
483.999	0.20055931
484.207	0.20098801
484.415	0.2013637
484.623	0.20173467
484.831	0.20207949
485.039	0.2024547
485.247	0.20289456
485.455	0.20318867
485.663	0.20355049
485.871	0.20400995
486.079	0.20440764
486.287	0.20482716
486.495	0.20518404
486.702	0.20555241
486.91	0.20611444
487.118	0.206557
487.326	0.20696026
487.534	0.20743652
487.742	0.20799304
487.95	0.20850866
488.157	0.20913705
488.365	0.20970404
488.573	0.21030177
488.781	0.21093628
488.988	0.21165333
489.196	0.21219266
489.404	0.21283934
489.612	0.21342866
489.819	0.21418184
490.027	0.21490012
490.235	0.21545767
490.442	0.21600108
490.65	0.21658968
490.857	0.21735339
491.065	0.21808598
491.273	0.21864656
491.48	0.2192291
491.688	0.21996767
491.895	0.22080214
492.103	0.22161794
492.31	0.22229507
492.518	0.22294549
492.725	0.22368057
492.933	0.22446
493.14	0.22514418
493.348	0.22578177
493.555	0.22644548
493.763	0.22712266
493.97	0.22796251
494.177	0.22881531
494.385	0.22961947
494.592	0.23043618
494.8	0.23117788
495.007	0.23213765
495.214	0.23295315
495.422	0.23377102
495.629	0.23451965
495.836	0.2353072
496.043	0.23628176
496.251	0.23722285
496.458	0.23794693
496.665	0.23880254
496.872	0.23959263
497.08	0.24054666
497.287	0.2414431
497.494	0.24224732
497.701	0.24314622
497.908	0.24416605
498.115	0.24505253
498.322	0.24606442
498.53	0.24686927
498.737	0.24776746
498.944	0.24862763
499.151	0.24953855
499.358	0.25047606
499.565	0.25147473
499.772	0.25245311
499.979	0.25355197
500.186	0.25463708
500.393	0.25573755
500.6	0.25673108
500.807	0.25774967
501.014	0.25880462
501.221	0.25987277
501.427	0.26090354
501.634	0.26195219
501.841	0.26298028
502.048	0.26404578
502.255	0.26497636
502.462	0.26602618
502.669	0.26703251
502.875	0.26804061
503.082	0.26898953
503.289	0.26996339
503.496	0.27101293
503.702	0.27209261
503.909	0.27314854
504.116	0.27422896
504.323	0.27531982
504.529	0.27650655
504.736	0.27766114
504.943	0.27877382
505.149	0.2800679
505.356	0.28132043
505.563	0.28249111
505.769	0.28369364
505.976	0.28481531
506.182	0.28599523
506.389	0.28714909
506.595	0.28824778
506.802	0.28935946
507.008	0.29058089
507.215	0.29172669
507.421	0.29290433
507.628	0.29400561
507.834	0.29519088
508.041	0.29638229
508.247	0.29748654
508.454	0.29866184
508.66	0.29979211
508.866	0.30093619
509.073	0.30223833
509.279	0.30348257
509.486	0.30458429
509.692	0.30580197
509.898	0.30688854
510.105	0.30815216
510.311	0.30941064
510.517	0.31061153
510.723	0.31180779
510.93	0.31299645
511.136	0.3142162
511.342	0.31546859
511.548	0.31661749
511.754	0.31777338
511.961	0.31898561
512.167	0.32018224
512.373	0.32147242
512.579	0.32274937
512.785	0.32401189
512.991	0.32533706
513.197	0.32674355
513.404	0.32812658
513.61	0.32952401
513.816	0.33080566
514.022	0.33209363
514.228	0.33339223
514.434	0.33466112
514.64	0.33586636
514.846	0.33708828
515.052	0.33819573
515.258	0.33940193
515.464	0.34070397
515.669	0.34203519
515.875	0.34334092
516.081	0.34463592
516.287	0.34604586
516.493	0.34753273
516.699	0.34887631
516.905	0.35007176
517.111	0.3512731
517.316	0.35255865
517.522	0.35382346
517.728	0.35503913
517.934	0.35627359
518.139	0.35768965
518.345	0.35905747
518.551	0.36045228
518.757	0.36175327
518.962	0.36314425
519.168	0.36447036
519.374	0.3657769
519.579	0.36698781
519.785	0.36839517
519.991	0.36981014
520.196	0.37119505
520.402	0.37238486
520.607	0.37365092
520.813	0.3750038
521.018	0.37629947
521.224	0.37744367
521.429	0.37866351
521.635	0.37985944
521.84	0.3811503
522.046	0.38246269
522.251	0.38366788
522.457	0.38498298
522.662	0.38635453
522.868	0.38767156
523.073	0.38901169
523.279	0.39041487
523.484	0.391663
523.689	0.39310067
523.895	0.39448358
524.1	0.39581619
524.305	0.39710158
524.511	0.39837239
524.716	0.39966839
524.921	0.40102874
525.126	0.4022395
525.332	0.40350135
525.537	0.40474045
525.742	0.40604538
525.947	0.40737993
526.153	0.40864041
526.358	0.40988801
526.563	0.41120071
526.768	0.41252654
526.973	0.4139039
527.178	0.41520117
527.383	0.41649723
527.588	0.41772153
527.794	0.41896548
527.999	0.42024502
528.204	0.42146957
528.409	0.42264241
528.614	0.42393022
528.819	0.42510818
529.024	0.42630257
529.229	0.42755146
529.434	0.4288552
529.639	0.43006589
529.843	0.43130577
530.048	0.43247433
530.253	0.43375505
530.458	0.4351605
530.663	0.43636257
530.868	0.4375336
531.073	0.43866684
531.278	0.43983697
531.482	0.4410246
531.687	0.4422264
531.892	0.443348
532.097	0.44450713
532.302	0.44572365
532.506	0.44697227
532.711	0.4482052
532.916	0.44945562
533.12	0.45063234
533.325	0.45180871
533.53	0.45319866
533.734	0.45445459
533.939	0.45579448
534.144	0.45712691
534.348	0.45835909
534.553	0.45965872
534.757	0.46087899
534.962	0.46197758
535.167	0.46310096
535.371	0.46412704
535.576	0.4652692
535.78	0.46638953
535.985	0.46746954
536.189	0.46858825
536.394	0.46974703
536.598	0.47089313
536.803	0.47215067
537.007	0.47319495
537.211	0.47439533
537.416	0.47544215
537.62	0.4765741
537.825	0.47767588
538.029	0.47894317
538.233	0.47997042
538.438	0.48117763
538.642	0.48223477
538.846	0.48350875
539.05	0.48462958
539.255	0.48565255
539.459	0.48666618
539.663	0.48778523
539.867	0.48884302
540.072	0.48993886
540.276	0.49098346
540.48	0.49213883
540.684	0.49324918
540.888	0.49441201
541.092	0.49544142
541.297	0.49647298
541.501	0.49750844
541.705	0.49854166
541.909	0.49949546
542.113	0.5004211
542.317	0.50137357
542.521	0.50241424
542.725	0.50344706
542.929	0.5044631
543.133	0.5054461
543.337	0.50659886
543.541	0.50779781
543.745	0.50872724
543.949	0.50972984
544.153	0.51062806
544.357	0.51155396
544.56	0.51258308
544.764	0.51348179
544.968	0.5143398
545.172	0.51520373
545.376	0.51628754
545.58	0.517303
545.783	0.51835951
545.987	0.51921143
546.191	0.52005509
546.395	0.52105975
546.598	0.5222299
546.802	0.52313118
547.006	0.5240728
547.21	0.52477849
547.413	0.52576687
547.617	0.52677689
547.821	0.52772062
548.024	0.52862578
548.228	0.5293612
548.431	0.53023867
548.635	0.53115945
548.839	0.53196167
549.042	0.53269031
549.246	0.53339906
549.449	0.53409736
549.653	0.53498996
549.856	0.53584888
550.06	0.53668816
550.263	0.53765403
550.467	0.53871103
550.67	0.53976333
550.874	0.54069234
551.077	0.54163798
551.28	0.54247775
551.484	0.54344818
551.687	0.54423216
551.891	0.54504214
552.094	0.54576361
552.297	0.54661758
552.501	0.54750065
552.704	0.54840066
552.907	0.54916481
553.11	0.54990268
553.314	0.5506094
553.517	0.55120283
553.72	0.551851
553.923	0.55259675
554.127	0.55336107
554.33	0.55408101
554.533	0.55486806
554.736	0.5554769
554.939	0.55625835
555.142	0.5569922
555.345	0.55749913
555.549	0.55812829
555.752	0.55879204
555.955	0.55940749
556.158	0.56022738
556.361	0.56089015
556.564	0.56157842
556.767	0.56228485
556.97	0.56296443
557.173	0.56368884
557.376	0.56452881
557.579	0.56512327
557.782	0.56590894
557.984	0.56663345
558.187	0.56733263
558.39	0.56789422
558.593	0.56854577
558.796	0.56905665
558.999	0.56957658
559.202	0.57016661
559.404	0.5705885
559.607	0.57119839
559.81	0.57185381
560.013	0.57236174
560.216	0.57297641
560.418	0.57374157
560.621	0.57438739
560.824	0.5752007
561.026	0.57583837
561.229	0.57633291
561.432	0.57695538
561.634	0.57746598
561.837	0.57793434
562.04	0.57835554
562.242	0.57877551
562.445	0.57915359
562.647	0.57969026
562.85	0.57996999
563.053	0.58036463
563.255	0.58081886
563.458	0.58131306
563.66	0.58175487
563.863	0.58235267
564.065	0.58292601
