Data from 1_mm_pl_60pc_Absorbance__0__17-01-12-032.txt Node

Date: Wed Mar 08 17:01:12 CET 2023
User: Ange
Spectrometer: FLMT08341
Trigger mode: 0
Integration Time (sec): 1.000000E-2
Scans to average: 400
Electric dark correction enabled: true
Nonlinearity correction enabled: false
Boxcar width: 3
XAxis mode: Wavelengths
Number of Pixels in Spectrum: 3648
>>>>>Begin Spectral Data<<<<<
345.271	-0.01644904
345.487	-0.01446189
345.704	-0.02271485
345.921	-0.02708789
346.137	-0.02216158
346.354	-0.01450948
346.571	-0.00643125
346.787	0.06667787
347.004	-0.05343232
347.22	-0.09453462
347.437	0.06011564
347.653	0.08037768
347.87	-0.30240114
348.086	-0.22197236
348.303	0.32961931
348.519	0.28191268
348.736	0.28012661
348.952	0.30014138
349.169	0.3030836
349.385	0.31865283
349.601	0.31653345
349.818	0.31528057
350.034	0.31167469
350.251	0.31067762
350.467	0.31443265
350.683	0.30490445
350.9	0.3030788
351.116	0.30015942
351.332	0.29603622
351.549	0.3041302
351.765	0.31060939
351.981	0.31402022
352.197	0.32944713
352.414	0.33833489
352.63	0.34355853
352.846	0.35185684
353.062	0.34729391
353.278	0.34344961
353.495	0.35232424
353.711	0.35207701
353.927	0.35458691
354.143	0.35622458
354.359	0.35423583
354.575	0.35430919
354.792	0.36393465
355.008	0.3577934
355.224	0.35368023
355.44	0.35136996
355.656	0.35007668
355.872	0.35562016
356.088	0.37515312
356.304	0.37565884
356.52	0.37566463
356.736	0.38175609
356.952	0.38644513
357.168	0.3903729
357.384	0.39534209
357.6	0.38180463
357.816	0.38775344
358.032	0.39433564
358.248	0.40196493
358.464	0.40326236
358.679	0.40581473
358.895	0.40485677
359.111	0.41368746
359.327	0.40648261
359.543	0.40987072
359.759	0.41507128
359.974	0.41536821
360.19	0.41453089
360.406	0.41566041
360.622	0.41351342
360.838	0.41384449
361.053	0.41578102
361.269	0.41667821
361.485	0.41954873
361.701	0.42360968
361.916	0.42077619
362.132	0.42216636
362.348	0.426224
362.563	0.4274652
362.779	0.42355627
362.995	0.42716942
363.21	0.43101887
363.426	0.43458922
363.641	0.43630547
363.857	0.4416647
364.073	0.43856302
364.288	0.43761171
364.504	0.44424024
364.719	0.44621793
364.935	0.44762378
365.15	0.44998477
365.366	0.4501355
365.581	0.45657026
365.797	0.45985
366.012	0.45398218
366.228	0.44952708
366.443	0.45652815
366.658	0.45775722
366.874	0.45719766
367.089	0.46100792
367.305	0.46432879
367.52	0.46820431
367.735	0.47195107
367.951	0.46708926
368.166	0.47090258
368.381	0.47785482
368.597	0.47775136
368.812	0.48212341
369.027	0.48630459
369.243	0.489054
369.458	0.50085936
369.673	0.50223791
369.888	0.50199144
370.104	0.49852036
370.319	0.50033754
370.534	0.49641356
370.749	0.49817442
370.964	0.49591924
371.179	0.49528012
371.395	0.49291874
371.61	0.49974176
371.825	0.49499391
372.04	0.4974094
372.255	0.49585856
372.47	0.4933361
372.685	0.49154239
372.9	0.49359865
373.115	0.49018388
373.33	0.49352943
373.545	0.49623267
373.76	0.49998406
373.975	0.50065434
374.19	0.50125332
374.405	0.50462951
374.62	0.51105697
374.835	0.5161702
375.05	0.51681672
375.265	0.51905948
375.48	0.52292587
375.695	0.53245463
375.91	0.53075453
376.125	0.52587735
376.339	0.52100886
376.554	0.52206629
376.769	0.5223461
376.984	0.5221719
377.199	0.52361187
377.414	0.5238342
377.628	0.52955495
377.843	0.53531763
378.058	0.53866741
378.273	0.54273005
378.487	0.54526582
378.702	0.54326198
378.917	0.54488412
379.131	0.54342811
379.346	0.53864994
379.561	0.53613473
379.775	0.5334301
379.99	0.53007571
380.205	0.52847363
380.419	0.52708734
380.634	0.5227081
380.848	0.52911676
381.063	0.53129638
381.278	0.53526464
381.492	0.53401479
381.707	0.53869765
381.921	0.53976511
382.136	0.54938123
382.35	0.54633404
382.565	0.5449716
382.779	0.54613313
382.994	0.55000209
383.208	0.54714504
383.422	0.5527854
383.637	0.55038688
383.851	0.5550976
384.066	0.55859165
384.28	0.56013294
384.494	0.56163657
384.709	0.56534409
384.923	0.56640699
385.137	0.56443898
385.352	0.56493638
385.566	0.56667573
385.78	0.5660908
385.995	0.56553964
386.209	0.56351416
386.423	0.56527747
386.637	0.56932538
386.852	0.56684774
387.066	0.56641958
387.28	0.56432245
387.494	0.56863591
387.708	0.57128252
387.923	0.56920267
388.137	0.57140157
388.351	0.5753332
388.565	0.57808782
388.779	0.58014744
388.993	0.58399039
389.207	0.58486455
389.421	0.58695615
389.635	0.5846094
389.85	0.58293272
390.064	0.58323432
390.278	0.58566496
390.492	0.58543738
390.706	0.58697538
390.92	0.58815659
391.134	0.59159762
391.348	0.59741346
391.561	0.59636636
391.775	0.59485852
391.989	0.59149804
392.203	0.59357463
392.417	0.59484594
392.631	0.59823387
392.845	0.59543356
393.059	0.59989514
393.273	0.60068076
393.486	0.59996868
393.7	0.59657993
393.914	0.59907889
394.128	0.59728322
394.342	0.59662349
394.555	0.59220019
394.769	0.5925608
394.983	0.59553889
395.197	0.59849518
395.41	0.59695139
395.624	0.59850181
395.838	0.59872075
396.051	0.6042637
396.265	0.60422251
396.479	0.60536322
396.692	0.60565
396.906	0.60497697
397.12	0.60392727
397.333	0.60744472
397.547	0.60520456
397.76	0.60918225
397.974	0.60954902
398.187	0.61129866
398.401	0.61373975
398.614	0.61457914
398.828	0.61485666
399.041	0.6163432
399.255	0.61430176
399.468	0.61423254
399.682	0.61368898
399.895	0.61479969
400.109	0.6139981
400.322	0.61251196
400.536	0.6101543
400.749	0.61380925
400.962	0.61466187
401.176	0.6146062
401.389	0.61375072
401.602	0.61180061
401.816	0.61268211
402.029	0.61482416
402.242	0.61248413
402.456	0.61133199
402.669	0.60868767
402.882	0.60550719
403.095	0.60946173
403.309	0.60914945
403.522	0.60940523
403.735	0.60894989
403.948	0.60974883
404.161	0.61610994
404.375	0.61838457
404.588	0.61757276
404.801	0.61786191
405.014	0.61660942
405.227	0.61918431
405.44	0.61990461
405.653	0.61837325
405.866	0.61626045
406.079	0.6154246
406.293	0.6146529
406.506	0.61493237
406.719	0.61340604
406.932	0.61258983
407.145	0.60993395
407.358	0.61392032
407.571	0.61272261
407.784	0.61354155
407.996	0.61403717
408.209	0.6115497
408.422	0.61061799
408.635	0.61145592
408.848	0.60995185
409.061	0.60814755
409.274	0.60739059
409.487	0.60639236
409.7	0.60661475
409.912	0.60757109
410.125	0.60748313
410.338	0.60666052
410.551	0.60663616
410.764	0.60644653
410.976	0.60614313
411.189	0.60660323
411.402	0.60402793
411.615	0.60325159
411.827	0.60265184
412.04	0.60342525
412.253	0.60161045
412.465	0.60020704
412.678	0.59895664
412.891	0.60027077
413.103	0.59715697
413.316	0.59567642
413.529	0.59626336
413.741	0.59736594
413.954	0.59821771
414.166	0.59776305
414.379	0.59633376
414.591	0.59807345
414.804	0.5969651
415.016	0.59552911
415.229	0.59358653
415.441	0.59147537
415.654	0.59170436
415.866	0.59096159
416.079	0.59067924
416.291	0.59003135
416.504	0.59038132
416.716	0.59033128
416.928	0.59012563
417.141	0.5882646
417.353	0.58790613
417.566	0.58451159
417.778	0.58463434
417.99	0.58121646
418.203	0.57874741
418.415	0.5772496
418.627	0.57693895
418.839	0.57603122
419.052	0.57761828
419.264	0.5761386
419.476	0.57663888
419.688	0.5767778
419.901	0.57626652
420.113	0.57460329
420.325	0.57295244
420.537	0.57007416
420.749	0.56942968
420.961	0.56865614
421.174	0.56681854
421.386	0.56484357
421.598	0.56369147
421.81	0.56250508
422.022	0.56178587
422.234	0.5605983
422.446	0.55827058
422.658	0.55698657
422.87	0.55661214
423.082	0.55592763
423.294	0.55440341
423.506	0.55307555
423.718	0.55151001
423.93	0.54959349
424.142	0.54799594
424.354	0.54569423
424.566	0.54338789
424.778	0.54250014
424.99	0.54111667
425.202	0.53922113
425.414	0.53862889
425.625	0.53827266
425.837	0.53626751
426.049	0.53578293
426.261	0.53391058
426.473	0.53171903
426.684	0.53092952
426.896	0.53016779
427.108	0.52787753
427.32	0.52750415
427.531	0.52543238
427.743	0.52417688
427.955	0.52452316
428.167	0.52218061
428.378	0.52006192
428.59	0.51889086
428.802	0.51729049
429.013	0.51573457
429.225	0.51402372
429.436	0.51145895
429.648	0.51068422
429.86	0.50958462
430.071	0.50848145
430.283	0.50726022
430.494	0.50569522
430.706	0.50427827
430.917	0.50246884
431.129	0.50100449
431.34	0.49915073
431.552	0.49751325
431.763	0.4952957
431.975	0.49397362
432.186	0.49162852
432.398	0.49007455
432.609	0.48721274
432.821	0.48574987
433.032	0.48395343
433.243	0.48227494
433.455	0.48045749
433.666	0.47948231
433.877	0.47860773
434.089	0.47709831
434.3	0.47491488
434.511	0.47224249
434.723	0.47032675
434.934	0.46794344
435.145	0.46535632
435.356	0.46288882
435.568	0.46126201
435.779	0.45927454
435.99	0.45725626
436.201	0.45560993
436.412	0.45404398
436.624	0.45300317
436.835	0.45124966
437.046	0.44992041
437.257	0.44835809
437.468	0.4477708
437.679	0.4464778
437.89	0.4448219
438.101	0.44311348
438.312	0.44163684
438.523	0.43948776
438.734	0.43794779
438.945	0.43584978
439.156	0.4334437
439.367	0.431817
439.578	0.4302649
439.789	0.42800638
440	0.426695
440.211	0.42442915
440.422	0.42274212
440.633	0.42137598
440.844	0.41924517
441.055	0.41696906
441.266	0.41554031
441.477	0.41329418
441.687	0.41158175
441.898	0.40986511
442.109	0.407732
442.32	0.40584951
442.531	0.40359734
442.741	0.40106943
442.952	0.39904916
443.163	0.39735127
443.374	0.39483179
443.584	0.39289276
443.795	0.39128928
444.006	0.38989368
444.216	0.38823852
444.427	0.38618752
444.638	0.38412799
444.848	0.38264845
445.059	0.38079344
445.27	0.3785843
445.48	0.3762457
445.691	0.374582
445.901	0.37326321
446.112	0.37163298
446.323	0.36958667
446.533	0.36760137
446.744	0.36576531
446.954	0.36399458
447.165	0.36201131
447.375	0.36032687
447.586	0.35861357
447.796	0.35703662
448.006	0.35538953
448.217	0.35391833
448.427	0.35241582
448.638	0.35034002
448.848	0.34813458
449.058	0.34612115
449.269	0.34426118
449.479	0.34243241
449.689	0.34053606
449.9	0.33873536
450.11	0.33712296
450.32	0.33588701
450.531	0.33406272
450.741	0.33223857
450.951	0.33073232
451.161	0.32896871
451.372	0.32734073
451.582	0.32631129
451.792	0.324298
452.002	0.32291824
452.212	0.32120819
452.422	0.3195282
452.633	0.31776781
452.843	0.31636957
453.053	0.31397672
453.263	0.31253238
453.473	0.31070255
453.683	0.30934585
453.893	0.30742837
454.103	0.30613044
454.313	0.30446896
454.523	0.30316654
454.733	0.30152789
454.943	0.30024641
455.153	0.29878442
455.363	0.29742775
455.573	0.29588129
455.783	0.29434568
455.993	0.29262083
456.203	0.29141565
456.413	0.29002596
456.623	0.28846254
456.833	0.28744324
457.042	0.28595455
457.252	0.28458564
457.462	0.28323261
457.672	0.28177521
457.882	0.28012743
458.091	0.27865244
458.301	0.27673274
458.511	0.275345
458.721	0.27372633
458.931	0.27244972
459.14	0.27095125
459.35	0.2697054
459.56	0.26844853
459.769	0.26765184
459.979	0.26637451
460.189	0.26522768
460.398	0.26387391
460.608	0.26280346
460.817	0.26156063
461.027	0.26044739
461.237	0.25909642
461.446	0.2578689
461.656	0.25686961
461.865	0.25573498
462.075	0.25441197
462.284	0.25340939
462.494	0.25218122
462.703	0.25080733
462.913	0.24974345
463.122	0.24855794
463.332	0.24759514
463.541	0.24677676
463.751	0.24564495
463.96	0.2447084
464.169	0.24388263
464.379	0.24306447
464.588	0.24212157
464.797	0.24119169
465.007	0.24015658
465.216	0.23940082
465.425	0.23853705
465.635	0.23768656
465.844	0.23685721
466.053	0.2360593
466.263	0.23518695
466.472	0.23430724
466.681	0.23341347
466.89	0.23255754
467.099	0.23181598
467.309	0.23095615
467.518	0.23023858
467.727	0.22948429
467.936	0.22877693
468.145	0.22807445
468.354	0.22750482
468.563	0.22672531
468.772	0.22590807
468.982	0.22508771
469.191	0.22459956
469.4	0.22390856
469.609	0.22324378
469.818	0.22256564
470.027	0.22203039
470.236	0.22147808
470.445	0.22097883
470.654	0.22008677
470.863	0.21946722
471.072	0.21893116
471.28	0.21832137
471.489	0.21773886
471.698	0.21732249
471.907	0.21687431
472.116	0.21661167
472.325	0.21617552
472.534	0.21586585
472.743	0.21546135
472.951	0.21509418
473.16	0.21468298
473.369	0.21421773
473.578	0.21381541
473.786	0.21356534
473.995	0.21304949
474.204	0.21277235
474.413	0.21238817
474.621	0.21204044
474.83	0.21193262
475.039	0.21170711
475.247	0.21136806
475.456	0.21115939
475.665	0.21090723
475.873	0.21058194
476.082	0.21014305
476.291	0.20981493
476.499	0.20955832
476.708	0.20926242
476.916	0.20912228
477.125	0.20887135
477.333	0.20876057
477.542	0.20877589
477.75	0.20848843
477.959	0.20837482
478.167	0.20835517
478.376	0.20809415
478.584	0.20791751
478.793	0.20783095
479.001	0.2077128
479.209	0.20761329
479.418	0.2075186
479.626	0.20740265
479.834	0.20738455
480.043	0.20744728
480.251	0.20744548
480.459	0.20741243
480.668	0.20756827
480.876	0.20757009
481.084	0.20759594
481.293	0.20769253
481.501	0.20765843
481.709	0.20779101
481.917	0.2079273
482.125	0.20803953
482.334	0.20812538
482.542	0.20840122
482.75	0.20855025
482.958	0.20882333
483.166	0.20905397
483.374	0.20926164
483.583	0.20941268
483.791	0.20965396
483.999	0.20971146
484.207	0.20993959
484.415	0.21023349
484.623	0.21035249
484.831	0.21054295
485.039	0.21080156
485.247	0.21103296
485.455	0.21132876
485.663	0.2116211
485.871	0.21192422
486.079	0.21215319
486.287	0.21245153
486.495	0.21262559
486.702	0.21286338
486.91	0.21313629
487.118	0.21334158
487.326	0.21357483
487.534	0.21398697
487.742	0.21445253
487.95	0.21490733
488.157	0.21535405
488.365	0.21583223
488.573	0.21641577
488.781	0.21695642
488.988	0.2174314
489.196	0.21787104
489.404	0.21838963
489.612	0.2189972
489.819	0.2195884
490.027	0.2200687
490.235	0.22048527
490.442	0.22100038
490.65	0.22142942
490.857	0.2220291
491.065	0.22251864
491.273	0.22306277
491.48	0.22359364
491.688	0.22419089
491.895	0.22491907
492.103	0.22561882
492.31	0.22623118
492.518	0.22681459
492.725	0.22746213
492.933	0.22811065
493.14	0.22871023
493.348	0.22923534
493.555	0.22987549
493.763	0.23042219
493.97	0.23114201
494.177	0.23176665
494.385	0.23243295
494.592	0.23315289
494.8	0.23379284
495.007	0.2344398
495.214	0.23503827
495.422	0.23573774
495.629	0.23642651
495.836	0.23718775
496.043	0.2380258
496.251	0.23891232
496.458	0.23968456
496.665	0.24056223
496.872	0.24128966
497.08	0.24206709
497.287	0.24280581
497.494	0.2435386
497.701	0.24425162
497.908	0.24509465
498.115	0.24592504
498.322	0.24676044
498.53	0.24757052
498.737	0.24835302
498.944	0.24915706
499.151	0.24996741
499.358	0.25083346
499.565	0.25164482
499.772	0.25264504
499.979	0.25357959
500.186	0.25459883
500.393	0.25552858
500.6	0.25648846
500.807	0.25740168
501.014	0.25839798
501.221	0.25927454
501.427	0.26024066
501.634	0.26121334
501.841	0.2621709
502.048	0.2631297
502.255	0.26403801
502.462	0.26501797
502.669	0.26591692
502.875	0.26688727
503.082	0.26778423
503.289	0.26863791
503.496	0.26953795
503.702	0.2705004
503.909	0.27151668
504.116	0.2725804
504.323	0.27351456
504.529	0.274526
504.736	0.27566084
504.943	0.2767344
505.149	0.2778807
505.356	0.27897717
505.563	0.28006879
505.769	0.2812441
505.976	0.2823726
506.182	0.283508
506.389	0.28462355
506.595	0.28570433
506.802	0.28677333
507.008	0.28783279
507.215	0.28889453
507.421	0.28997426
507.628	0.29095761
507.834	0.2920071
508.041	0.29309155
508.247	0.29412187
508.454	0.29529064
508.66	0.29634232
508.866	0.29742469
509.073	0.29866923
509.279	0.29984082
509.486	0.30090523
509.692	0.30205511
509.898	0.30310774
510.105	0.30429069
510.311	0.30548703
510.517	0.30664517
510.723	0.3078675
510.93	0.30899732
511.136	0.31014952
511.342	0.31132901
511.548	0.31245392
511.754	0.31358901
511.961	0.31470645
512.167	0.31583054
512.373	0.31709454
512.579	0.31831377
512.785	0.31956153
512.991	0.3208481
513.197	0.3221226
513.404	0.32339534
513.61	0.32469245
513.816	0.32589223
514.022	0.32716479
514.228	0.32835134
514.434	0.32949627
514.64	0.33065302
514.846	0.33183121
515.052	0.33294483
515.258	0.33413286
515.464	0.3353694
515.669	0.33673168
515.875	0.33806212
516.081	0.33931841
516.287	0.34066977
516.493	0.34207492
516.699	0.34330879
516.905	0.34451824
517.111	0.34567579
517.316	0.34697634
517.522	0.34824876
517.728	0.34956946
517.934	0.35088154
518.139	0.3522378
518.345	0.35357367
518.551	0.35492834
518.757	0.35606366
518.962	0.35731428
519.168	0.35853607
519.374	0.35961132
519.579	0.36092245
519.785	0.36224175
519.991	0.36351184
520.196	0.36485795
520.402	0.3661667
520.607	0.36736882
520.813	0.36877349
521.018	0.36999152
521.224	0.371097
521.429	0.37240582
521.635	0.37372595
521.84	0.37496293
522.046	0.37628466
522.251	0.37752034
522.457	0.37880612
522.662	0.38021443
522.868	0.38150125
523.073	0.38273084
523.279	0.38404357
523.484	0.38525909
523.689	0.38663504
523.895	0.38804139
524.1	0.38932112
524.305	0.39057365
524.511	0.39191369
524.716	0.39333689
524.921	0.39472852
525.126	0.39602237
525.332	0.397318
525.537	0.39853082
525.742	0.39989668
525.947	0.40117117
526.153	0.4023562
526.358	0.40365174
526.563	0.40493433
526.768	0.40616266
526.973	0.4075515
527.178	0.40882146
527.383	0.41010308
527.588	0.41136967
527.794	0.41255897
527.999	0.41381541
528.204	0.41505142
528.409	0.4162484
528.614	0.41755801
528.819	0.41875275
529.024	0.41999322
529.229	0.42122886
529.434	0.42255706
529.639	0.4238656
529.843	0.42515319
530.048	0.42639133
530.253	0.42768159
530.458	0.4290315
530.663	0.43037023
530.868	0.43156838
531.073	0.43273033
531.278	0.43392636
531.482	0.43505281
531.687	0.43629643
531.892	0.43748188
532.097	0.43862782
532.302	0.43988182
532.506	0.44120764
532.711	0.44256814
532.916	0.44395891
533.12	0.44528264
533.325	0.44658194
533.53	0.44803726
533.734	0.44936405
533.939	0.45068061
534.144	0.45193435
534.348	0.45311455
534.553	0.45444298
534.757	0.45564987
534.962	0.45684176
535.167	0.45804829
535.371	0.45917065
535.576	0.46042212
535.78	0.46167988
535.985	0.46286523
536.189	0.46402421
536.394	0.46520166
536.598	0.4664256
536.803	0.46769327
537.007	0.46884745
537.211	0.4700917
537.416	0.47118748
537.62	0.47237005
537.825	0.47358687
538.029	0.47484968
538.233	0.47600912
538.438	0.47731529
538.642	0.47842048
538.846	0.47975224
539.05	0.48097625
539.255	0.48207167
539.459	0.48323093
539.663	0.48444704
539.867	0.48563299
540.072	0.48685477
540.276	0.48799948
540.48	0.48927733
540.684	0.49043386
540.888	0.49166302
541.092	0.49274578
541.297	0.49379861
541.501	0.49491377
541.705	0.49607132
541.909	0.49713328
542.113	0.4982371
542.317	0.49932427
542.521	0.5005105
542.725	0.5016205
542.929	0.50271467
543.133	0.50384289
543.337	0.50507601
543.541	0.50626329
543.745	0.50723583
543.949	0.50829353
544.153	0.50933324
544.357	0.51035472
544.56	0.51138183
544.764	0.51240484
544.968	0.51342394
545.172	0.51443257
545.376	0.51559899
545.58	0.51671099
545.783	0.51795533
545.987	0.51893741
546.191	0.51991642
546.395	0.52099598
546.598	0.52228215
546.802	0.52340934
547.006	0.52451837
547.21	0.52530706
547.413	0.52643208
547.617	0.52748269
547.821	0.52858402
548.024	0.52956451
548.228	0.53039493
548.431	0.53134086
548.635	0.5324562
548.839	0.53334419
549.042	0.53431695
549.246	0.53511903
549.449	0.53602004
549.653	0.53704155
549.856	0.53803711
550.06	0.53905909
550.263	0.54021079
550.467	0.5413705
550.67	0.54266266
550.874	0.54375313
551.077	0.54491739
551.28	0.54602221
551.484	0.54711057
551.687	0.5480957
551.891	0.54909966
552.094	0.54998831
552.297	0.5510557
552.501	0.55212652
552.704	0.55309902
552.907	0.55393926
553.11	0.55483413
553.314	0.55570649
553.517	0.55643681
553.72	0.55726889
553.923	0.55804718
554.127	0.55896401
554.33	0.55981984
554.533	0.56068757
554.736	0.56146189
554.939	0.56243833
555.142	0.56326917
555.345	0.56410741
555.549	0.56497922
555.752	0.56582531
555.955	0.56670206
556.158	0.56763083
556.361	0.56843211
556.564	0.56928088
556.767	0.57008354
556.97	0.57083991
557.173	0.57180741
557.376	0.57277759
557.579	0.57357066
557.782	0.5744288
557.984	0.57535082
558.187	0.57625713
558.39	0.57710625
558.593	0.57790697
558.796	0.57855559
558.999	0.57931988
559.202	0.58019467
559.404	0.58085485
559.607	0.58160623
559.81	0.58239677
560.013	0.58312209
560.216	0.58396478
560.418	0.58486178
560.621	0.58568871
560.824	0.58656216
561.026	0.5873573
561.229	0.58804895
561.432	0.58884097
561.634	0.58956883
561.837	0.59021555
562.04	0.5908702
562.242	0.59163389
562.445	0.59219101
562.647	0.59295331
562.85	0.59347601
563.053	0.5941067
563.255	0.59480869
563.458	0.59548084
563.66	0.59602197
563.863	0.59685759
564.065	0.59763038
