Data from 0_1_mm_pl_70pc_Absorbance__0__18-13-08-965.txt Node

Date: Wed Mar 01 18:13:08 CET 2023
User: Ange
Spectrometer: FLMT08341
Trigger mode: 0
Integration Time (sec): 1.000000E-2
Scans to average: 400
Electric dark correction enabled: true
Nonlinearity correction enabled: false
Boxcar width: 3
XAxis mode: Wavelengths
Number of Pixels in Spectrum: 3648
>>>>>Begin Spectral Data<<<<<
345.271	-0.0004102
345.487	-0.00169999
345.704	0.00134546
345.921	0.00715766
346.137	-0.00088251
346.354	-0.00099233
346.571	0.03184027
346.787	0.04353887
347.004	-0.03937721
347.22	0.02772597
347.437	0.02108095
347.653	-0.04496456
347.87	0.18336155
348.086	-1.07351606
348.303	0.51047719
348.519	0.05333891
348.736	0.04837308
348.952	0.04432847
349.169	0.04889322
349.385	0.05032676
349.601	0.05114675
349.818	0.04996127
350.034	0.04862418
350.251	0.0488339
350.467	0.0489641
350.683	0.04439907
350.9	0.04357568
351.116	0.04204653
351.332	0.04220237
351.549	0.04210771
351.765	0.0429545
351.981	0.04392588
352.197	0.04440995
352.414	0.04588172
352.63	0.04598416
352.846	0.0461653
353.062	0.04593625
353.278	0.0450382
353.495	0.04593057
353.711	0.04951187
353.927	0.04715492
354.143	0.04835724
354.359	0.04734245
354.575	0.04708008
354.792	0.04874679
355.008	0.04686167
355.224	0.04414792
355.44	0.0455824
355.656	0.04558527
355.872	0.04817419
356.088	0.04796195
356.304	0.04643689
356.52	0.04683623
356.736	0.04773779
356.952	0.04782453
357.168	0.04730263
357.384	0.04654724
357.6	0.04715464
357.816	0.04716107
358.032	0.04675436
358.248	0.04807161
358.464	0.04803166
358.679	0.04885454
358.895	0.04789907
359.111	0.04812542
359.327	0.04752205
359.543	0.0480053
359.759	0.04873222
359.974	0.04937243
360.19	0.04664059
360.406	0.0458002
360.622	0.0445965
360.838	0.04500824
361.053	0.04538359
361.269	0.04383949
361.485	0.04354279
361.701	0.04545552
361.916	0.04505248
362.132	0.04531114
362.348	0.04557982
362.563	0.04661541
362.779	0.04630631
362.995	0.04580496
363.21	0.04583393
363.426	0.04664768
363.641	0.04682955
363.857	0.04688324
364.073	0.04637175
364.288	0.04689947
364.504	0.0469925
364.719	0.04713499
364.935	0.04661706
365.15	0.04588646
365.366	0.04585796
365.581	0.04477987
365.797	0.04462923
366.012	0.04356074
366.228	0.04340728
366.443	0.04439125
366.658	0.04464267
366.874	0.0433386
367.089	0.04476486
367.305	0.04545177
367.52	0.0457894
367.735	0.04636144
367.951	0.04656888
368.166	0.04740596
368.381	0.04904535
368.597	0.04850722
368.812	0.04857454
369.027	0.04908168
369.243	0.04860091
369.458	0.04911568
369.673	0.04916336
369.888	0.04866243
370.104	0.04848959
370.319	0.04828738
370.534	0.04928855
370.749	0.04933189
370.964	0.04844811
371.179	0.04815125
371.395	0.04897401
371.61	0.04868818
371.825	0.04778424
372.04	0.04730774
372.255	0.04728637
372.47	0.04824594
372.685	0.0478639
372.9	0.04746712
373.115	0.04779103
373.33	0.04850926
373.545	0.04827371
373.76	0.04877082
373.975	0.04733535
374.19	0.04792854
374.405	0.04784839
374.62	0.04711235
374.835	0.04759519
375.05	0.04741513
375.265	0.0469368
375.48	0.04738748
375.695	0.04737595
375.91	0.04749752
376.125	0.04838917
376.339	0.04727821
376.554	0.0481452
376.769	0.04835115
376.984	0.04917104
377.199	0.05014277
377.414	0.05007461
377.628	0.050621
377.843	0.05146973
378.058	0.05065325
378.273	0.05031891
378.487	0.05018388
378.702	0.04951644
378.917	0.04927248
379.131	0.04909175
379.346	0.04891323
379.561	0.04927925
379.775	0.04996515
379.99	0.04977009
380.205	0.05000466
380.419	0.0498922
380.634	0.04908044
380.848	0.04898831
381.063	0.04933519
381.278	0.05001304
381.492	0.04947098
381.707	0.04955493
381.921	0.05050701
382.136	0.05190154
382.35	0.05213824
382.565	0.05192144
382.779	0.05154371
382.994	0.05266874
383.208	0.05263318
383.422	0.05254006
383.637	0.05162902
383.851	0.05170326
384.066	0.05135575
384.28	0.05147309
384.494	0.05077957
384.709	0.05062753
384.923	0.05073907
385.137	0.05078251
385.352	0.05127872
385.566	0.05154832
385.78	0.05155777
385.995	0.05180969
386.209	0.05186968
386.423	0.05182039
386.637	0.05251912
386.852	0.05227109
387.066	0.05250018
387.28	0.05262672
387.494	0.05335782
387.708	0.05342793
387.923	0.0535419
388.137	0.05386146
388.351	0.05447878
388.565	0.0549288
388.779	0.05472007
388.993	0.05518564
389.207	0.05548365
389.421	0.05509418
389.635	0.05468727
389.85	0.05426765
390.064	0.05425594
390.278	0.05446681
390.492	0.05365377
390.706	0.05377225
390.92	0.05421664
391.134	0.05398846
391.348	0.0543006
391.561	0.05407682
391.775	0.05363549
391.989	0.05400589
392.203	0.05416584
392.417	0.05436488
392.631	0.05488825
392.845	0.05470155
393.059	0.05495558
393.273	0.05519556
393.486	0.05441074
393.7	0.05437205
393.914	0.05416697
394.128	0.05380991
394.342	0.05395176
394.555	0.05369653
394.769	0.05374294
394.983	0.05412925
395.197	0.05388902
395.41	0.05413274
395.624	0.05439761
395.838	0.05428775
396.051	0.05459965
396.265	0.05483714
396.479	0.05555575
396.692	0.05554681
396.906	0.05608592
397.12	0.05578039
397.333	0.05563951
397.547	0.05585628
397.76	0.05582485
397.974	0.05546688
398.187	0.05607239
398.401	0.05576704
398.614	0.05648367
398.828	0.05681562
399.041	0.05689264
399.255	0.05723818
399.468	0.05755546
399.682	0.0572545
399.895	0.05717757
400.109	0.05707924
400.322	0.05719013
400.536	0.05629967
400.749	0.05614801
400.962	0.05616019
401.176	0.05613148
401.389	0.05634314
401.602	0.05572422
401.816	0.0556802
402.029	0.05634894
402.242	0.05644503
402.456	0.05646043
402.669	0.05624417
402.882	0.05605639
403.095	0.05637364
403.309	0.05645605
403.522	0.05644324
403.735	0.05632444
403.948	0.05603859
404.161	0.05638922
404.375	0.05611089
404.588	0.05601256
404.801	0.05586252
405.014	0.05591299
405.227	0.05602355
405.44	0.05638495
405.653	0.05657559
405.866	0.05699748
406.079	0.05700448
406.293	0.05713309
406.506	0.05719206
406.719	0.05725424
406.932	0.05701426
407.145	0.05685714
407.358	0.05682164
407.571	0.05674342
407.784	0.0567744
407.996	0.05687903
408.209	0.05636029
408.422	0.05635673
408.635	0.05630114
408.848	0.05613691
409.061	0.05589234
409.274	0.05569501
409.487	0.0556439
409.7	0.0561119
409.912	0.05636351
410.125	0.05632883
410.338	0.05631447
410.551	0.0564802
410.764	0.05663244
410.976	0.05638836
411.189	0.05597992
411.402	0.05551253
411.615	0.05512951
411.827	0.0550578
412.04	0.05486686
412.253	0.05460449
412.465	0.05447609
412.678	0.05445893
412.891	0.05456723
413.103	0.0545956
413.316	0.0545568
413.529	0.05460734
413.741	0.05463044
413.954	0.05481058
414.166	0.05498197
414.379	0.05478752
414.591	0.05492908
414.804	0.05489799
415.016	0.05481245
415.229	0.05453262
415.441	0.05427782
415.654	0.05421693
415.866	0.05430348
416.079	0.05403564
416.291	0.05367939
416.504	0.05370904
416.716	0.05356267
416.928	0.05330753
417.141	0.05326244
417.353	0.05319189
417.566	0.05326841
417.778	0.05337682
417.99	0.05338926
418.203	0.0533778
418.415	0.0532948
418.627	0.05287168
418.839	0.0527306
419.052	0.05277082
419.264	0.05278153
419.476	0.05279601
419.688	0.05275352
419.901	0.05269625
420.113	0.05284551
420.325	0.05249943
420.537	0.05221215
420.749	0.05173557
420.961	0.0515321
421.174	0.05141071
421.386	0.05117063
421.598	0.05077063
421.81	0.05072921
422.022	0.05038023
422.234	0.05034128
422.446	0.05021442
422.658	0.05006689
422.87	0.04997492
423.082	0.05005583
423.294	0.04997081
423.506	0.0499825
423.718	0.04989666
423.93	0.04960068
424.142	0.04933293
424.354	0.04927463
424.566	0.04903379
424.778	0.04874415
424.99	0.04842834
425.202	0.04810436
425.414	0.04792661
425.625	0.04794866
425.837	0.04786977
426.049	0.04778403
426.261	0.04770109
426.473	0.04774843
426.684	0.04770127
426.896	0.04741338
427.108	0.04719622
427.32	0.04696199
427.531	0.0467621
427.743	0.04675698
427.955	0.04676807
428.167	0.04674946
428.378	0.04671999
428.59	0.04661122
428.802	0.04650215
429.013	0.04645883
429.225	0.0460721
429.436	0.04561558
429.648	0.04538458
429.86	0.04527439
430.071	0.04498092
430.283	0.04487178
430.494	0.04447629
430.706	0.04430488
430.917	0.04411466
431.129	0.0439144
431.34	0.04366962
431.552	0.04349102
431.763	0.04323585
431.975	0.04278529
432.186	0.04259068
432.398	0.0426143
432.609	0.04232753
432.821	0.04225573
433.032	0.04199884
433.243	0.04175435
433.455	0.04185749
433.666	0.04176066
433.877	0.04148629
434.089	0.04141721
434.3	0.04114808
434.511	0.04117642
434.723	0.04085284
434.934	0.04073235
435.145	0.04044134
435.356	0.0401815
435.568	0.04014251
435.779	0.04003313
435.99	0.03984182
436.201	0.04001828
436.412	0.0397676
436.624	0.03972833
436.835	0.03968148
437.046	0.03955104
437.257	0.03922257
437.468	0.03902126
437.679	0.03850133
437.89	0.03819407
438.101	0.03790643
438.312	0.03757717
438.523	0.0371031
438.734	0.03699152
438.945	0.03668583
439.156	0.03663585
439.367	0.03668338
439.578	0.03646966
439.789	0.03629581
440	0.0360259
440.211	0.03572847
440.422	0.03541704
440.633	0.03516993
440.844	0.03457482
441.055	0.03439218
441.266	0.03411455
441.477	0.03398206
441.687	0.03377725
441.898	0.03359986
442.109	0.03326746
442.32	0.03316327
442.531	0.03292526
442.741	0.03277794
442.952	0.03251706
443.163	0.03228175
443.374	0.03207608
443.584	0.03200009
443.795	0.03172328
444.006	0.03143661
444.216	0.0311149
444.427	0.03089417
444.638	0.03085472
444.848	0.03069347
445.059	0.03049234
445.27	0.03044007
445.48	0.03034057
445.691	0.0302709
445.901	0.03016066
446.112	0.02980857
446.323	0.02955749
446.533	0.02923945
446.744	0.02908903
446.954	0.02887711
447.165	0.02863709
447.375	0.02835769
447.586	0.02817222
447.796	0.02800559
448.006	0.02775035
448.217	0.02768295
448.427	0.02747502
448.638	0.0273883
448.848	0.02719789
449.058	0.02706945
449.269	0.02688003
449.479	0.02678313
449.689	0.02636999
449.9	0.02614781
450.11	0.02581111
450.32	0.02566512
450.531	0.02538719
450.741	0.02522731
450.951	0.02509137
451.161	0.02493948
451.372	0.02469691
451.582	0.02453279
451.792	0.02438427
452.002	0.02423475
452.212	0.02408581
452.422	0.02388783
452.633	0.0236674
452.843	0.02358855
453.053	0.02341727
453.263	0.02322679
453.473	0.02300192
453.683	0.02285152
453.893	0.02261478
454.103	0.02243979
454.313	0.0223006
454.523	0.02208107
454.733	0.02186263
454.943	0.02175162
455.153	0.02157625
455.363	0.02147061
455.573	0.02137016
455.783	0.02115177
455.993	0.02098146
456.203	0.02085603
456.413	0.02068454
456.623	0.02047288
456.833	0.02031206
457.042	0.02008577
457.252	0.0199876
457.462	0.01985638
457.672	0.01962709
457.882	0.01951093
458.091	0.01932975
458.301	0.01908504
458.511	0.01904283
458.721	0.0189458
458.931	0.01872337
459.14	0.01862613
459.35	0.01861984
459.56	0.01848341
459.769	0.01838659
459.979	0.01820797
460.189	0.0179677
460.398	0.01787091
460.608	0.01781776
460.817	0.0175851
461.027	0.01753356
461.237	0.01750269
461.446	0.01734754
461.656	0.01726456
461.865	0.01712226
462.075	0.01693948
462.284	0.01667679
462.494	0.01656367
462.703	0.01635558
462.913	0.01620453
463.122	0.01617786
463.332	0.01618017
463.541	0.01603832
463.751	0.01593775
463.96	0.01569244
464.169	0.01557189
464.379	0.01553263
464.588	0.01536499
464.797	0.01520811
465.007	0.01514063
465.216	0.01510632
465.425	0.01507909
465.635	0.01486092
465.844	0.01472632
466.053	0.01449388
466.263	0.01432085
466.472	0.01414178
466.681	0.01402592
466.89	0.01403329
467.099	0.01405181
467.309	0.01393012
467.518	0.01389153
467.727	0.01389763
467.936	0.01388987
468.145	0.01376419
468.354	0.01354693
468.563	0.01345227
468.772	0.01331815
468.982	0.01319302
469.191	0.01301104
469.4	0.01286033
469.609	0.01278248
469.818	0.01266091
470.027	0.01259157
470.236	0.01255914
470.445	0.01250152
470.654	0.01240531
470.863	0.01235072
471.072	0.01228469
471.28	0.01231127
471.489	0.01222348
471.698	0.01219032
471.907	0.01208109
472.116	0.01209302
472.325	0.01199536
472.534	0.0118331
472.743	0.01168657
472.951	0.01165248
473.16	0.01159306
473.369	0.0115505
473.578	0.01148406
473.786	0.01143988
473.995	0.01150748
474.204	0.01146436
474.413	0.01140714
474.621	0.01131323
474.83	0.01129317
475.039	0.01121166
475.247	0.01120254
475.456	0.01111633
475.665	0.01104618
475.873	0.01099366
476.082	0.01099743
476.291	0.01101165
476.499	0.01101962
476.708	0.01092255
476.916	0.01088126
477.125	0.01079761
477.333	0.01071186
477.542	0.01063003
477.75	0.01053302
477.959	0.01048395
478.167	0.01041201
478.376	0.01042518
478.584	0.0104692
478.793	0.01037579
479.001	0.01039986
479.209	0.01043859
479.418	0.01037554
479.626	0.01037192
479.834	0.01029037
480.043	0.01023656
480.251	0.01029489
480.459	0.01020272
480.668	0.01010803
480.876	0.01010552
481.084	0.01007912
481.293	0.01006934
481.501	0.01013634
481.709	0.01017135
481.917	0.01013479
482.125	0.01012095
482.334	0.01012477
482.542	0.01017592
482.75	0.01014763
482.958	0.01003597
483.166	0.00993521
483.374	0.00994107
483.583	0.00985507
483.791	0.00978653
483.999	0.00964199
484.207	0.009683
484.415	0.0096769
484.623	0.00967223
484.831	0.00967632
485.039	0.00970896
485.247	0.00969678
485.455	0.00975795
485.663	0.00972144
485.871	0.00968653
486.079	0.00971569
486.287	0.0097178
486.495	0.00975601
486.702	0.00979976
486.91	0.00979395
487.118	0.0097288
487.326	0.00974369
487.534	0.00979006
487.742	0.00977848
487.95	0.0097776
488.157	0.00971025
488.365	0.00977845
488.573	0.00982948
488.781	0.00986607
488.988	0.00979305
489.196	0.00982315
489.404	0.00979325
489.612	0.00986702
489.819	0.00990748
490.027	0.00990619
490.235	0.0099307
490.442	0.00993592
490.65	0.00993615
490.857	0.00996757
491.065	0.00997817
491.273	0.00996122
491.48	0.01001951
491.688	0.01001075
491.895	0.01006983
492.103	0.01005841
492.31	0.01007669
492.518	0.01011456
492.725	0.010144
492.933	0.01013199
493.14	0.01017445
493.348	0.01016434
493.555	0.01024084
493.763	0.01028158
493.97	0.01029135
494.177	0.0102555
494.385	0.0102761
494.592	0.01022178
494.8	0.01024295
495.007	0.01021919
495.214	0.01026647
495.422	0.01030709
495.629	0.01032689
495.836	0.01037737
496.043	0.01050727
496.251	0.01056712
496.458	0.01065553
496.665	0.0106911
496.872	0.01070919
497.08	0.010762
497.287	0.01081936
497.494	0.01083641
497.701	0.01091724
497.908	0.01093828
498.115	0.01098604
498.322	0.01101205
498.53	0.01105811
498.737	0.0111115
498.944	0.01119648
499.151	0.01124914
499.358	0.01130103
499.565	0.01135187
499.772	0.01140196
499.979	0.0114762
500.186	0.01149675
500.393	0.01151327
500.6	0.0115228
500.807	0.01160805
501.014	0.01167271
501.221	0.01174062
501.427	0.01176576
501.634	0.01183062
501.841	0.01188701
502.048	0.01192517
502.255	0.01194125
502.462	0.01197319
502.669	0.01202176
502.875	0.0120618
503.082	0.01210746
503.289	0.0121619
503.496	0.01220967
503.702	0.01222412
503.909	0.01220831
504.116	0.01223516
504.323	0.01230012
504.529	0.01236351
504.736	0.01240329
504.943	0.01250754
505.149	0.01261025
505.356	0.01272589
505.563	0.012825
505.769	0.01290978
505.976	0.01295082
506.182	0.01301047
506.389	0.01308829
506.595	0.01315228
506.802	0.01319529
507.008	0.01325714
507.215	0.01332806
507.421	0.01342216
507.628	0.01350251
507.834	0.01348575
508.041	0.01350391
508.247	0.01358642
508.454	0.01362136
508.66	0.01368801
508.866	0.01371405
509.073	0.0137664
509.279	0.01385829
509.486	0.01392284
509.692	0.01398025
509.898	0.01408981
510.105	0.01418287
510.311	0.01431151
510.517	0.01442012
510.723	0.01452736
510.93	0.01462843
511.136	0.01475456
511.342	0.01480368
511.548	0.01486979
511.754	0.01493141
511.961	0.01496055
512.167	0.01501288
512.373	0.0150887
512.579	0.01515778
512.785	0.01525469
512.991	0.01529521
513.197	0.01537305
513.404	0.01547663
513.61	0.01559114
513.816	0.01574128
514.022	0.0158166
514.228	0.01588096
514.434	0.01595413
514.64	0.01604367
514.846	0.01612085
515.052	0.0161886
515.258	0.01623699
515.464	0.01629325
515.669	0.01639049
515.875	0.01649763
516.081	0.01656911
516.287	0.01667907
516.493	0.01676686
516.699	0.01685742
516.905	0.01694963
517.111	0.01699223
517.316	0.01709676
517.522	0.0171914
517.728	0.01722506
517.934	0.01728503
518.139	0.01737069
518.345	0.01746865
518.551	0.01759297
518.757	0.01770126
518.962	0.01776926
519.168	0.01787089
519.374	0.01796734
519.579	0.01803721
519.785	0.01816129
519.991	0.01830349
520.196	0.01839087
520.402	0.01852409
520.607	0.01868722
520.813	0.01885591
521.018	0.0189781
521.224	0.01908701
521.429	0.01917128
521.635	0.01931826
521.84	0.0193868
522.046	0.01948671
522.251	0.0196004
522.457	0.01968446
522.662	0.01973864
522.868	0.01985732
523.073	0.01994042
523.279	0.02008464
523.484	0.02016957
523.689	0.02027055
523.895	0.02042758
524.1	0.0206219
524.305	0.02079636
524.511	0.02086575
524.716	0.02097495
524.921	0.02112471
525.126	0.02123159
525.332	0.0212933
525.537	0.02136643
525.742	0.02145773
525.947	0.02160789
526.153	0.02171058
526.358	0.02181218
526.563	0.02192382
526.768	0.02207924
526.973	0.02219917
527.178	0.02229924
527.383	0.02242139
527.588	0.02254098
527.794	0.02264527
527.999	0.02279043
528.204	0.02293104
528.409	0.02305843
528.614	0.02316783
528.819	0.02329494
529.024	0.02342877
529.229	0.02359281
529.434	0.02367643
529.639	0.0238256
529.843	0.02396357
530.048	0.02406184
530.253	0.02422189
530.458	0.02437217
530.663	0.02453313
530.868	0.02473539
531.073	0.02488183
531.278	0.02505011
531.482	0.02524806
531.687	0.02532964
531.892	0.02547662
532.097	0.02560882
532.302	0.0257166
532.506	0.02580932
532.711	0.02589708
532.916	0.02603745
533.12	0.02620821
533.325	0.02632477
533.53	0.02646342
533.734	0.02662974
533.939	0.02679975
534.144	0.02698042
534.348	0.02710307
534.553	0.02728122
534.757	0.02746616
534.962	0.02758021
535.167	0.02770818
535.371	0.02784148
535.576	0.02799358
535.78	0.02817277
535.985	0.02829677
536.189	0.02844022
536.394	0.02864176
536.598	0.02879902
536.803	0.02895877
537.007	0.02909856
537.211	0.02921213
537.416	0.02936034
537.62	0.02952863
537.825	0.02963666
538.029	0.02976148
538.233	0.02991844
538.438	0.03010983
538.642	0.03033883
538.846	0.03055025
539.05	0.030701
539.255	0.03093232
539.459	0.0311697
539.663	0.03135818
539.867	0.03151842
540.072	0.03163257
540.276	0.03178449
540.48	0.0319801
540.684	0.0321095
540.888	0.0322847
541.092	0.03246162
541.297	0.03265565
541.501	0.03285256
541.705	0.03301135
541.909	0.03314194
542.113	0.0333509
542.317	0.03349727
542.521	0.03367384
542.725	0.03381928
542.929	0.03397678
543.133	0.03415438
543.337	0.03436836
543.541	0.03451608
543.745	0.03471869
543.949	0.03491806
544.153	0.0350755
544.357	0.03528654
544.56	0.03550396
544.764	0.03573315
544.968	0.03591657
545.172	0.03611947
545.376	0.03630728
545.58	0.03653001
545.783	0.03676356
545.987	0.03692623
546.191	0.03705391
546.395	0.03729127
546.598	0.03745799
546.802	0.0376243
547.006	0.03779807
547.21	0.03796728
547.413	0.0382218
547.617	0.03846804
547.821	0.03864613
548.024	0.03884493
548.228	0.03900813
548.431	0.03921657
548.635	0.03938018
548.839	0.03952883
549.042	0.039717
549.246	0.0399177
549.449	0.04010804
549.653	0.04039764
549.856	0.0405972
550.06	0.04081941
550.263	0.04104856
550.467	0.04129039
550.67	0.04148995
550.874	0.04171711
551.077	0.04189835
551.28	0.04212462
551.484	0.04231965
551.687	0.04248818
551.891	0.0426335
552.094	0.04281477
552.297	0.04300803
552.501	0.0432417
552.704	0.04348378
552.907	0.0437218
553.11	0.04399202
553.314	0.04421844
553.517	0.04442615
553.72	0.04467556
553.923	0.04488263
554.127	0.04507481
554.33	0.04528276
554.533	0.04546944
554.736	0.04569513
554.939	0.04591785
555.142	0.04614752
555.345	0.04635766
555.549	0.04659318
555.752	0.04684178
555.955	0.04708112
556.158	0.04730468
556.361	0.04759869
556.564	0.04778397
556.767	0.04801806
556.97	0.04821754
557.173	0.04841806
557.376	0.04866632
557.579	0.04891729
557.782	0.0491244
557.984	0.04938694
558.187	0.04964994
558.39	0.04990026
558.593	0.0501848
558.796	0.05037618
558.999	0.05056852
559.202	0.05077868
559.404	0.05098643
559.607	0.05119954
559.81	0.05145288
560.013	0.05165014
560.216	0.05194953
560.418	0.05224761
560.621	0.05250584
560.824	0.05277962
561.026	0.0530215
561.229	0.05324347
561.432	0.05351273
561.634	0.05370664
561.837	0.05394637
562.04	0.05418014
562.242	0.05445269
562.445	0.05466446
562.647	0.05493955
562.85	0.05513936
563.053	0.05541632
563.255	0.05562162
563.458	0.05586458
563.66	0.05607394
563.863	0.05637216
