Data from 0_1_mm_pl_70pc_Absorbance__0__15-54-12-032.txt Node

Date: Fri Feb 24 15:54:12 CET 2023
User: Ange
Spectrometer: FLMT08341
Trigger mode: 0
Integration Time (sec): 1.000000E-2
Scans to average: 400
Electric dark correction enabled: true
Nonlinearity correction enabled: false
Boxcar width: 3
XAxis mode: Wavelengths
Number of Pixels in Spectrum: 3648
>>>>>Begin Spectral Data<<<<<
345.271	0.0699894
345.487	0.05876419
345.704	0.04198468
345.921	0.0515143
346.137	0.04189651
346.354	0.0390935
346.571	0.01998301
346.787	-0.10945436
347.004	0.0318065
347.22	-0.0993117
347.437	0.00520507
347.653	-0.21463132
347.87	0.08189058
348.086	0.28830951
348.303	-0
348.519	0.64542814
348.736	0.5830126
348.952	0.59302645
349.169	0.61367044
349.385	0.65182141
349.601	0.64502376
349.818	0.63057755
350.034	0.62171953
350.251	0.61698917
350.467	0.61870234
350.683	0.59446762
350.9	0.58755955
351.116	0.58101292
351.332	0.57364091
351.549	0.59376534
351.765	0.61921627
351.981	0.6313579
352.197	0.66186258
352.414	0.69495924
352.63	0.70914534
352.846	0.73341662
353.062	0.70632706
353.278	0.68196441
353.495	0.70365165
353.711	0.70256056
353.927	0.70066345
354.143	0.70058487
354.359	0.69347602
354.575	0.69653075
354.792	0.72107625
355.008	0.69817193
355.224	0.68903752
355.44	0.68078807
355.656	0.67885971
355.872	0.69056884
356.088	0.73817728
356.304	0.7385189
356.52	0.74851274
356.736	0.75630183
356.952	0.76635557
357.168	0.77465222
357.384	0.78721901
357.6	0.75366358
357.816	0.77073439
358.032	0.78253831
358.248	0.81483656
358.464	0.81298015
358.679	0.81965838
358.895	0.82026448
359.111	0.83821275
359.327	0.81268778
359.543	0.81855663
359.759	0.82627519
359.974	0.83199968
360.19	0.82627503
360.406	0.82199257
360.622	0.81586542
360.838	0.81370755
361.053	0.82317164
361.269	0.82013446
361.485	0.82387961
361.701	0.83789448
361.916	0.82441422
362.132	0.82554579
362.348	0.83559847
362.563	0.83604299
362.779	0.8253864
362.995	0.83229994
363.21	0.84290319
363.426	0.85842915
363.641	0.86421761
363.857	0.87600505
364.073	0.8661045
364.288	0.85511138
364.504	0.87196159
364.719	0.86833644
364.935	0.86809166
365.15	0.87186174
365.366	0.87274063
365.581	0.89200151
365.797	0.90290303
366.012	0.88652846
366.228	0.87134449
366.443	0.8905037
366.658	0.89304784
366.874	0.88182927
367.089	0.89123808
367.305	0.89650443
367.52	0.90008376
367.735	0.90528357
367.951	0.88689848
368.166	0.89281879
368.381	0.91551715
368.597	0.90093722
368.812	0.9114182
369.027	0.91767603
369.243	0.92666262
369.458	0.96020362
369.673	0.95953166
369.888	0.95935061
370.104	0.95657394
370.319	0.96579839
370.534	0.96118009
370.749	0.96248521
370.964	0.9572892
371.179	0.95235474
371.395	0.94283762
371.61	0.95516152
371.825	0.93529651
372.04	0.93921401
372.255	0.93163218
372.47	0.92085691
372.685	0.91376584
372.9	0.90994482
373.115	0.89422879
373.33	0.90061784
373.545	0.90025948
373.76	0.9076252
373.975	0.90086002
374.19	0.89824185
374.405	0.9031052
374.62	0.92085236
374.835	0.93519444
375.05	0.94026055
375.265	0.94288438
375.48	0.95084321
375.695	0.98139712
375.91	0.97436456
376.125	0.95435992
376.339	0.9332722
376.554	0.92685161
376.769	0.92495263
376.984	0.92308816
377.199	0.91710127
377.414	0.91566975
377.628	0.93422745
377.843	0.94424028
378.058	0.95007693
378.273	0.95617155
378.487	0.95962081
378.702	0.95921392
378.917	0.96405128
379.131	0.94927451
379.346	0.93443698
379.561	0.92348499
379.775	0.91429789
379.99	0.90205813
380.205	0.8858228
380.419	0.87245208
380.634	0.86225187
380.848	0.87155923
381.063	0.87212544
381.278	0.88091969
381.492	0.8721384
381.707	0.88270574
381.921	0.88161692
382.136	0.89475261
382.35	0.8862747
382.565	0.87844187
382.779	0.87159773
382.994	0.87640324
383.208	0.86518447
383.422	0.87579989
383.637	0.8669228
383.851	0.87341857
384.066	0.87733843
384.28	0.87858012
384.494	0.88017393
384.709	0.8843419
384.923	0.88022925
385.137	0.86999912
385.352	0.86392323
385.566	0.86500382
385.78	0.85812137
385.995	0.85192573
386.209	0.84375944
386.423	0.84444465
386.637	0.84920375
386.852	0.84108954
387.066	0.83713631
387.28	0.82947433
387.494	0.8323683
387.708	0.83230159
387.923	0.82564837
388.137	0.82781921
388.351	0.82911899
388.565	0.8298731
388.779	0.83190918
388.993	0.83768786
389.207	0.83652131
389.421	0.8361389
389.635	0.82697422
389.85	0.82253849
390.064	0.81875933
390.278	0.815993
390.492	0.81021257
390.706	0.80763116
390.92	0.80319168
391.134	0.80569556
391.348	0.81274065
391.561	0.80676787
391.775	0.80213982
391.989	0.79158427
392.203	0.79175621
392.417	0.7913333
392.631	0.79150358
392.845	0.78088185
393.059	0.78206736
393.273	0.7775466
393.486	0.77223835
393.7	0.76383411
393.914	0.76338984
394.128	0.75750539
394.342	0.75261987
394.555	0.74295492
394.769	0.74175709
394.983	0.74303331
395.197	0.74259577
395.41	0.73756531
395.624	0.73609373
395.838	0.73333211
396.051	0.73896469
396.265	0.73414911
396.479	0.73199304
396.692	0.72953898
396.906	0.7230456
397.12	0.71811235
397.333	0.71839916
397.547	0.71173565
397.76	0.71171913
397.974	0.70808797
398.187	0.70588103
398.401	0.70757182
398.614	0.70577018
398.828	0.70210664
399.041	0.70046571
399.255	0.69757932
399.468	0.69461452
399.682	0.69128083
399.895	0.68880364
400.109	0.68460838
400.322	0.68088875
400.536	0.6736938
400.749	0.6725869
400.962	0.67009211
401.176	0.66584535
401.389	0.66118274
401.602	0.65427599
401.816	0.65342613
402.029	0.65447239
402.242	0.65053678
402.456	0.64736329
402.669	0.64392451
402.882	0.63775043
403.095	0.63979396
403.309	0.63552646
403.522	0.63274867
403.735	0.62842049
403.948	0.62630515
404.161	0.62862373
404.375	0.62809945
404.588	0.62569427
404.801	0.62364505
405.014	0.61950884
405.227	0.62001902
405.44	0.61872235
405.653	0.61553429
405.866	0.6111563
406.079	0.60707439
406.293	0.60453352
406.506	0.6023297
406.719	0.5980234
406.932	0.59412081
407.145	0.58887653
407.358	0.59011758
407.571	0.58724345
407.784	0.58571008
407.996	0.58435004
408.209	0.58062823
408.422	0.57735186
408.635	0.57640409
408.848	0.574022
409.061	0.56977331
409.274	0.56635701
409.487	0.56335624
409.7	0.56254245
409.912	0.56198459
410.125	0.55917678
410.338	0.55622849
410.551	0.55536898
410.764	0.5532416
410.976	0.55126543
411.189	0.54872426
411.402	0.54512916
411.615	0.5439036
411.827	0.54183651
412.04	0.53971062
412.253	0.53718741
412.465	0.53453179
412.678	0.53147911
412.891	0.53071181
413.103	0.52639598
413.316	0.52357364
413.529	0.52314667
413.741	0.52268551
413.954	0.52116671
414.166	0.52015087
414.379	0.51697142
414.591	0.51631168
414.804	0.51417388
415.016	0.51156731
415.229	0.50814412
415.441	0.50555637
415.654	0.50409663
415.866	0.50287941
416.079	0.50175561
416.291	0.49954005
416.504	0.49900837
416.716	0.49759979
416.928	0.49654088
417.141	0.49385133
417.353	0.49257623
417.566	0.48957783
417.778	0.48886579
417.99	0.48514734
418.203	0.4826998
418.415	0.48067686
418.627	0.47991311
418.839	0.47781244
419.052	0.47762528
419.264	0.4757616
419.476	0.47515862
419.688	0.47404892
419.901	0.472292
420.113	0.4697733
420.325	0.46791735
420.537	0.4651859
420.749	0.4639219
420.961	0.46257543
421.174	0.46066409
421.386	0.45847014
421.598	0.45688939
421.81	0.45548607
422.022	0.45359622
422.234	0.45170722
422.446	0.44931024
422.658	0.447993
422.87	0.44704195
423.082	0.44568568
423.294	0.4441023
423.506	0.44317538
423.718	0.44161164
423.93	0.43997313
424.142	0.43813107
424.354	0.43631186
424.566	0.43480914
424.778	0.43385376
424.99	0.43206504
425.202	0.43042944
425.414	0.42916161
425.625	0.42830396
425.837	0.42629868
426.049	0.42543623
426.261	0.42367586
426.473	0.4219274
426.684	0.42080666
426.896	0.42014175
427.108	0.41839234
427.32	0.4180017
427.531	0.41597005
427.743	0.41455957
427.955	0.41407092
428.167	0.41249531
428.378	0.41068091
428.59	0.40947886
428.802	0.40798883
429.013	0.40680129
429.225	0.405438
429.436	0.40409015
429.648	0.40362431
429.86	0.40267989
430.071	0.40189846
430.283	0.40095826
430.494	0.3999298
430.706	0.39885842
430.917	0.39759456
431.129	0.39594716
431.34	0.39482346
431.552	0.39361767
431.763	0.39223504
431.975	0.39141077
432.186	0.3900727
432.398	0.38902255
432.609	0.3874747
432.821	0.38620534
433.032	0.38512358
433.243	0.38398454
433.455	0.38289202
433.666	0.38217895
433.877	0.38164703
434.089	0.38036292
434.3	0.37908007
434.511	0.37755359
434.723	0.37671644
434.934	0.37522425
435.145	0.37355331
435.356	0.372129
435.568	0.37141369
435.779	0.3704809
435.99	0.36938134
436.201	0.3681475
436.412	0.36703007
436.624	0.36649791
436.835	0.36565487
437.046	0.36518657
437.257	0.36431871
437.468	0.36392496
437.679	0.36345294
437.89	0.36282466
438.101	0.36214142
438.312	0.36111735
438.523	0.35985271
438.734	0.35902851
438.945	0.35822185
439.156	0.35686382
439.367	0.35605625
439.578	0.35535222
439.789	0.3539213
440	0.35322454
440.211	0.35196349
440.422	0.35117857
440.633	0.3505491
440.844	0.34937379
441.055	0.34834363
441.266	0.3480965
441.477	0.34711789
441.687	0.34678853
441.898	0.34575046
442.109	0.34478412
442.32	0.34403536
442.531	0.34281255
442.741	0.34143135
442.952	0.34063665
443.163	0.3396758
443.374	0.3387511
443.584	0.33780554
443.795	0.33720465
444.006	0.33672758
444.216	0.3361055
444.427	0.33498919
444.638	0.33416768
444.848	0.33330815
445.059	0.33272457
445.27	0.33188229
445.48	0.33086662
445.691	0.33023855
445.901	0.32965778
446.112	0.32886916
446.323	0.32786782
446.533	0.3270388
446.744	0.32608755
446.954	0.32531535
447.165	0.32463289
447.375	0.32415867
447.586	0.32365503
447.796	0.32317602
448.006	0.32238302
448.217	0.32207566
448.427	0.32140413
448.638	0.32053817
448.848	0.31944185
449.058	0.3184928
449.269	0.31778809
449.479	0.3171164
449.689	0.31614238
449.9	0.31548312
450.11	0.31493188
450.32	0.31480586
450.531	0.31416813
450.741	0.3136323
450.951	0.31323008
451.161	0.31274033
451.372	0.312247
451.582	0.31203339
451.792	0.31108254
452.002	0.31045786
452.212	0.30966139
452.422	0.30891966
452.633	0.30805582
452.843	0.3076692
453.053	0.30647356
453.263	0.30594187
453.473	0.30536842
453.683	0.30509887
453.893	0.30434281
454.103	0.30421486
454.313	0.30335081
454.523	0.30286961
454.733	0.30248876
454.943	0.3021375
455.153	0.30158211
455.363	0.3013018
455.573	0.30064886
455.783	0.30025899
455.993	0.29975405
456.203	0.29931904
456.413	0.29880433
456.623	0.29803417
456.833	0.29758793
457.042	0.29709553
457.252	0.29667335
457.462	0.29617225
457.672	0.29553515
457.882	0.29486553
458.091	0.29436735
458.301	0.29355917
458.511	0.29279243
458.721	0.29225411
458.931	0.29171499
459.14	0.29117764
459.35	0.29080712
459.56	0.29041231
459.769	0.29017236
459.979	0.28961767
460.189	0.28899318
460.398	0.28854955
460.608	0.28806028
460.817	0.28762564
461.027	0.2871386
461.237	0.28647586
461.446	0.2862229
461.656	0.28586884
461.865	0.28542865
462.075	0.28507991
462.284	0.28462403
462.494	0.28423667
462.703	0.28383469
462.913	0.28348916
463.122	0.28291749
463.332	0.28254832
463.541	0.28230885
463.751	0.28190894
463.96	0.28152377
464.169	0.28108629
464.379	0.28084373
464.588	0.28062539
464.797	0.28012677
465.007	0.27951471
465.216	0.27915343
465.425	0.27887091
465.635	0.27868284
465.844	0.27824283
466.053	0.2779895
466.263	0.27779494
466.472	0.27756885
466.681	0.27732782
466.89	0.2768614
467.099	0.27652556
467.309	0.27611836
467.518	0.2759081
467.727	0.27560463
467.936	0.27521765
468.145	0.27496075
468.354	0.27485774
468.563	0.27463085
468.772	0.27438101
468.982	0.27401409
469.191	0.27398613
469.4	0.27378288
469.609	0.27344605
469.818	0.27341716
470.027	0.27323867
470.236	0.27304953
470.445	0.2728623
470.654	0.27228926
470.863	0.27192853
471.072	0.27167368
471.28	0.27112275
471.489	0.2709597
471.698	0.27067821
471.907	0.2704
472.116	0.27032474
472.325	0.27024777
472.534	0.27017892
472.743	0.26997615
472.951	0.26985357
473.16	0.26980556
473.369	0.26951821
473.578	0.26938939
473.786	0.26927817
473.995	0.26903613
474.204	0.26898667
474.413	0.26863993
474.621	0.26842508
474.83	0.26846707
475.039	0.26830191
475.247	0.26824668
475.456	0.26820446
475.665	0.26816562
475.873	0.2680693
476.082	0.2679081
476.291	0.26777885
476.499	0.26774052
476.708	0.26750367
476.916	0.26732303
477.125	0.26716686
477.333	0.26713431
477.542	0.2671077
477.75	0.267012
477.959	0.26694499
478.167	0.26698785
478.376	0.26681477
478.584	0.26672297
478.793	0.26648963
479.001	0.26642132
479.209	0.2662366
479.418	0.26608535
479.626	0.26588898
479.834	0.2658852
480.043	0.26587968
480.251	0.26584872
480.459	0.26577757
480.668	0.26576926
480.876	0.26575841
481.084	0.26574752
481.293	0.26576827
481.501	0.26569021
481.709	0.26587321
481.917	0.26590899
482.125	0.26594128
482.334	0.26595856
482.542	0.26599905
482.75	0.26599316
482.958	0.26603188
483.166	0.26602809
483.374	0.26608641
483.583	0.26613177
483.791	0.26620647
483.999	0.26606606
484.207	0.26615773
484.415	0.2661689
484.623	0.2660761
484.831	0.26604307
485.039	0.26611672
485.247	0.2660963
485.455	0.26628481
485.663	0.26625978
485.871	0.26632788
486.079	0.26641506
486.287	0.26644997
486.495	0.26642008
486.702	0.26642573
486.91	0.26649723
487.118	0.2665197
487.326	0.26660101
487.534	0.2666514
487.742	0.2668227
487.95	0.266945
488.157	0.26717249
488.365	0.26734401
488.573	0.26756345
488.781	0.26769037
488.988	0.26794787
489.196	0.26811286
489.404	0.26824957
489.612	0.26833952
489.819	0.26838016
490.027	0.26855453
490.235	0.26864676
490.442	0.26880114
490.65	0.26886012
490.857	0.26912467
491.065	0.26931198
491.273	0.26954436
491.48	0.26969727
491.688	0.26984183
491.895	0.26991325
492.103	0.27003178
492.31	0.27016618
492.518	0.27028656
492.725	0.27044091
492.933	0.27054411
493.14	0.27073445
493.348	0.27087638
493.555	0.27110786
493.763	0.27120065
493.97	0.27131867
494.177	0.27148174
494.385	0.27176181
494.592	0.27200012
494.8	0.27219269
495.007	0.27237447
495.214	0.27264841
495.422	0.27297944
495.629	0.2732068
495.836	0.27332259
496.043	0.27355355
496.251	0.27387371
496.458	0.2741757
496.665	0.27439644
496.872	0.2745826
497.08	0.27489872
497.287	0.27519131
497.494	0.27548183
497.701	0.27570419
497.908	0.27594934
498.115	0.27624032
498.322	0.27648347
498.53	0.2766481
498.737	0.27688563
498.944	0.27710791
499.151	0.27745053
499.358	0.27772276
499.565	0.27796182
499.772	0.27832141
499.979	0.27866132
500.186	0.27902145
500.393	0.27933493
500.6	0.27958333
500.807	0.27988882
501.014	0.28026733
501.221	0.28053909
501.427	0.28086777
501.634	0.28124117
501.841	0.28150409
502.048	0.28181982
502.255	0.28207163
502.462	0.28233496
502.669	0.28269513
502.875	0.28306964
503.082	0.28330653
503.289	0.28369612
503.496	0.28407697
503.702	0.28445846
503.909	0.28483932
504.116	0.2851474
504.323	0.28543831
504.529	0.28585622
504.736	0.2861607
504.943	0.28652883
505.149	0.28696725
505.356	0.28734371
505.563	0.2877915
505.769	0.28813968
505.976	0.28849364
506.182	0.28899401
506.389	0.289413
506.595	0.28981771
506.802	0.29020006
507.008	0.2905283
507.215	0.29093208
507.421	0.29134455
507.628	0.29166264
507.834	0.29194896
508.041	0.29235607
508.247	0.29270551
508.454	0.29313936
508.66	0.29349892
508.866	0.29379968
509.073	0.29423628
509.279	0.29469013
509.486	0.29505778
509.692	0.29550728
509.898	0.29589483
510.105	0.29635346
510.311	0.2968542
510.517	0.29728731
510.723	0.29777561
510.93	0.29826445
511.136	0.29869984
511.342	0.29919721
511.548	0.29967585
511.754	0.30016585
511.961	0.30058224
512.167	0.30092344
512.373	0.30129096
512.579	0.30176447
512.785	0.30219106
512.991	0.30259777
513.197	0.30302893
513.404	0.30351493
513.61	0.30404876
513.816	0.30450608
514.022	0.30502646
514.228	0.30548919
514.434	0.30599125
514.64	0.30644649
514.846	0.30693705
515.052	0.30738202
515.258	0.30790341
515.464	0.30834959
515.669	0.30884311
515.875	0.30933068
516.081	0.30987883
516.287	0.31037804
516.493	0.31089204
516.699	0.31129868
516.905	0.31173033
517.111	0.31217138
517.316	0.3126866
517.522	0.31312992
517.728	0.31364413
517.934	0.31417316
518.139	0.3147205
518.345	0.31524327
518.551	0.31578086
518.757	0.31626187
518.962	0.31679085
519.168	0.31726287
519.374	0.31766794
519.579	0.31818411
519.785	0.31870596
519.991	0.31925171
520.196	0.31980087
520.402	0.3202857
520.607	0.32082318
520.813	0.32147307
521.018	0.32204532
521.224	0.32249333
521.429	0.32299176
521.635	0.3235076
521.84	0.3239935
522.046	0.32461363
522.251	0.32512871
522.457	0.3256182
522.662	0.32627618
522.868	0.32686766
523.073	0.32743229
523.279	0.3280717
523.484	0.32850743
523.689	0.32900706
523.895	0.32959144
524.1	0.33009976
524.305	0.33064309
524.511	0.33113641
524.716	0.33163674
524.921	0.33217905
525.126	0.33271808
525.332	0.33325121
525.537	0.33379926
525.742	0.33434229
525.947	0.33503747
526.153	0.33560725
526.358	0.33624435
526.563	0.33683311
526.768	0.33740656
526.973	0.33793699
527.178	0.33845554
527.383	0.33891251
527.588	0.33947227
527.794	0.34002921
527.999	0.3405992
528.204	0.34120232
528.409	0.34174651
528.614	0.34243877
528.819	0.34304883
529.024	0.3435846
529.229	0.34408418
529.434	0.34470282
529.639	0.3452239
529.843	0.34592475
530.048	0.3464089
530.253	0.34692441
530.458	0.34756825
530.663	0.3481457
530.868	0.34871087
531.073	0.34927942
531.278	0.34977424
531.482	0.35033665
531.687	0.35096536
531.892	0.35152785
532.097	0.35205663
532.302	0.35261616
532.506	0.35319954
532.711	0.35380662
532.916	0.35440517
533.12	0.35491937
533.325	0.35547603
533.53	0.3561929
533.734	0.35678801
533.939	0.35733345
534.144	0.35788116
534.348	0.35846555
534.553	0.35902483
534.757	0.35956008
534.962	0.36003782
535.167	0.36062738
535.371	0.36122516
535.576	0.36185233
535.78	0.36249081
535.985	0.36315179
536.189	0.36380292
536.394	0.3645091
536.598	0.36500665
536.803	0.36556164
537.007	0.36609871
537.211	0.36668707
537.416	0.36723422
537.62	0.3677522
537.825	0.36819655
538.029	0.36890353
538.233	0.36945862
538.438	0.3701
538.642	0.37053125
538.846	0.37110057
539.05	0.37169713
539.255	0.37225035
539.459	0.37277182
539.663	0.37337104
539.867	0.37387142
540.072	0.37446243
540.276	0.37504216
540.48	0.37561983
540.684	0.37622104
540.888	0.37682291
541.092	0.37743852
541.297	0.37799305
541.501	0.37856314
541.705	0.37909075
541.909	0.3795906
542.113	0.38012259
542.317	0.38062357
542.521	0.38114988
542.725	0.38171606
542.929	0.38231772
543.133	0.38294538
543.337	0.38359903
543.541	0.3841633
543.745	0.38468717
543.949	0.38523263
544.153	0.38573766
544.357	0.38621023
544.56	0.38670031
544.764	0.38722602
544.968	0.38776945
545.172	0.38825172
545.376	0.38879024
545.58	0.38935407
545.783	0.38994984
545.987	0.39039539
546.191	0.39081741
546.395	0.39135128
546.598	0.39193694
546.802	0.39248742
547.006	0.39302319
547.21	0.39349036
547.413	0.3940932
547.617	0.39469389
547.821	0.39519938
548.024	0.39577679
548.228	0.39620075
548.431	0.39668994
548.635	0.39719331
548.839	0.39768501
549.042	0.39823426
549.246	0.39872039
549.449	0.39914494
549.653	0.39963286
549.856	0.40003531
550.06	0.40048545
550.263	0.40100235
550.467	0.40143282
550.67	0.40193941
550.874	0.40237541
551.077	0.40288835
551.28	0.40349919
551.484	0.4040366
551.687	0.40443309
551.891	0.40493501
552.094	0.40538194
552.297	0.40591205
552.501	0.40647561
552.704	0.40685364
552.907	0.40729368
553.11	0.40775047
553.314	0.40821184
553.517	0.40858269
553.72	0.40902661
553.923	0.40942755
554.127	0.40995509
554.33	0.41030836
554.533	0.41076868
554.736	0.41106685
554.939	0.41153879
555.142	0.41198347
555.345	0.41241713
555.549	0.41280669
555.752	0.41322753
555.955	0.4136388
556.158	0.41412858
556.361	0.41458248
556.564	0.41495783
556.767	0.41530531
556.97	0.41568263
557.173	0.41607753
557.376	0.4165365
557.579	0.41694654
557.782	0.41731242
557.984	0.41766952
558.187	0.41809403
558.39	0.41845539
558.593	0.41899643
558.796	0.41922609
558.999	0.4195045
559.202	0.4199084
559.404	0.42021126
559.607	0.42049789
559.81	0.42085514
560.013	0.42106233
560.216	0.42149177
560.418	0.42185831
560.621	0.42215028
560.824	0.42253168
561.026	0.42296773
561.229	0.42320883
561.432	0.42359253
561.634	0.42389476
561.837	0.42413793
562.04	0.42442299
562.242	0.42480251
562.445	0.42497251
562.647	0.42533063
562.85	0.42554702
563.053	0.42584342
563.255	0.42621381
563.458	0.42651772
563.66	0.42671965
563.863	0.42712889
564.065	0.42742529
564.268	0.42769359
