Data from 0_1_mm_pl_40pc_Absorbance__0__15-48-04-602.txt Node

Date: Fri Feb 24 15:48:04 CET 2023
User: Ange
Spectrometer: FLMT08341
Trigger mode: 0
Integration Time (sec): 1.000000E-2
Scans to average: 400
Electric dark correction enabled: true
Nonlinearity correction enabled: false
Boxcar width: 3
XAxis mode: Wavelengths
Number of Pixels in Spectrum: 3648
>>>>>Begin Spectral Data<<<<<
345.271	0.01555316
345.487	0.00705236
345.704	0.01824651
345.921	0.02147983
346.137	0.03051138
346.354	0.04648014
346.571	0.04905483
346.787	0.26905233
347.004	-0.12148769
347.22	-0.05143837
347.437	-0.00033681
347.653	0.07180046
347.87	-0.86608934
348.086	-0.42484054
348.303	-0
348.519	0.51888552
348.736	0.51685341
348.952	0.53947604
349.169	0.56789914
349.385	0.60043157
349.601	0.5932594
349.818	0.58876218
350.034	0.57824775
350.251	0.57988274
350.467	0.58675811
350.683	0.5680357
350.9	0.56523482
351.116	0.55754187
351.332	0.54893547
351.549	0.56633661
351.765	0.5773485
351.981	0.58707256
352.197	0.61126807
352.414	0.63981232
352.63	0.65876755
352.846	0.67345157
353.062	0.65447709
353.278	0.63762791
353.495	0.65145293
353.711	0.64733126
353.927	0.64718707
354.143	0.64951683
354.359	0.64094386
354.575	0.644259
354.792	0.66636773
355.008	0.65147804
355.224	0.64417111
355.44	0.63908679
355.656	0.6326156
355.872	0.64318536
356.088	0.67991475
356.304	0.67694494
356.52	0.67668706
356.736	0.68278409
356.952	0.6853885
357.168	0.68801292
357.384	0.69669681
357.6	0.67319421
357.816	0.68380128
358.032	0.69613157
358.248	0.72159829
358.464	0.7200082
358.679	0.72940885
358.895	0.72643646
359.111	0.73711826
359.327	0.72332333
359.543	0.72547292
359.759	0.72227839
359.974	0.72008034
360.19	0.7122292
360.406	0.70998288
360.622	0.70073538
360.838	0.69110501
361.053	0.69207059
361.269	0.69481714
361.485	0.69688622
361.701	0.70077527
361.916	0.69395052
362.132	0.69542182
362.348	0.70490392
362.563	0.70952407
362.779	0.69701561
362.995	0.69925096
363.21	0.70595626
363.426	0.70942843
363.641	0.70731757
363.857	0.7136247
364.073	0.70518319
364.288	0.69813313
364.504	0.71274105
364.719	0.7096456
364.935	0.70721594
365.15	0.70964459
365.366	0.70542017
365.581	0.71121918
365.797	0.71586526
366.012	0.70031357
366.228	0.69087219
366.443	0.70113512
366.658	0.69965821
366.874	0.69105741
367.089	0.69443259
367.305	0.69676055
367.52	0.69722296
367.735	0.6955592
367.951	0.68602094
368.166	0.68866016
368.381	0.70377587
368.597	0.69562398
368.812	0.69864172
369.027	0.69954919
369.243	0.70649127
369.458	0.7201334
369.673	0.72108521
369.888	0.71315989
370.104	0.70749661
370.319	0.70894365
370.534	0.70485012
370.749	0.70188025
370.964	0.69836979
371.179	0.69327847
371.395	0.68917249
371.61	0.6932986
371.825	0.68094235
372.04	0.68133107
372.255	0.67580974
372.47	0.66669045
372.685	0.66028709
372.9	0.65801479
373.115	0.6516434
373.33	0.65556395
373.545	0.651287
373.76	0.65294797
373.975	0.64751657
374.19	0.64241096
374.405	0.64039281
374.62	0.64358852
374.835	0.64625569
375.05	0.64604079
375.265	0.64314843
375.48	0.64644289
375.695	0.6563342
375.91	0.65090468
376.125	0.64228229
376.339	0.62952149
376.554	0.62739006
376.769	0.62443772
376.984	0.61913426
377.199	0.61815548
377.414	0.61457923
377.628	0.61874932
377.843	0.62216354
378.058	0.62138913
378.273	0.62300704
378.487	0.62212489
378.702	0.61634284
378.917	0.61622062
379.131	0.6078512
379.346	0.59913378
379.561	0.59168644
379.775	0.58461319
379.99	0.57643829
380.205	0.56921271
380.419	0.56260402
380.634	0.55757453
380.848	0.55992858
381.063	0.55871904
381.278	0.56146158
381.492	0.55757975
381.707	0.56038163
381.921	0.55869248
382.136	0.56112484
382.35	0.55520983
382.565	0.54996226
382.779	0.54541332
382.994	0.5454507
383.208	0.53786075
383.422	0.53954152
383.637	0.53534079
383.851	0.5371798
384.066	0.53828547
384.28	0.536965
384.494	0.53570231
384.709	0.53662143
384.923	0.53186232
385.137	0.52661656
385.352	0.52205544
385.566	0.52000291
385.78	0.51565422
385.995	0.51222585
386.209	0.50730454
386.423	0.50824747
386.637	0.50827796
386.852	0.50363038
387.066	0.49942144
387.28	0.49599921
387.494	0.4951771
387.708	0.49342293
387.923	0.48783445
388.137	0.48704488
388.351	0.4871176
388.565	0.48672985
388.779	0.48502886
388.993	0.48488748
389.207	0.48326411
389.421	0.48240484
389.635	0.47758558
389.85	0.47400835
390.064	0.47117925
390.278	0.46916797
390.492	0.46628602
390.706	0.46498133
390.92	0.46291695
391.134	0.46295353
391.348	0.46427514
391.561	0.46109692
391.775	0.45811028
391.989	0.45391536
392.203	0.45139436
392.417	0.44932252
392.631	0.44815223
392.845	0.44333357
393.059	0.44274148
393.273	0.4400886
393.486	0.43726798
393.7	0.43359533
393.914	0.43279234
394.128	0.42969711
394.342	0.42681027
394.555	0.42241322
394.769	0.4215676
394.983	0.42070091
395.197	0.42001524
395.41	0.41710261
395.624	0.4160705
395.838	0.41431308
396.051	0.41571979
396.265	0.41247799
396.479	0.41068332
396.692	0.40876374
396.906	0.40627126
397.12	0.40314294
397.333	0.40249036
397.547	0.39949795
397.76	0.39937619
397.974	0.39835281
398.187	0.39708874
398.401	0.3959756
398.614	0.39498772
398.828	0.39285163
399.041	0.39113729
399.255	0.38917792
399.468	0.38685309
399.682	0.38527348
399.895	0.38485427
400.109	0.38263532
400.322	0.38165956
400.536	0.37845327
400.749	0.37797901
400.962	0.37689479
401.176	0.37492856
401.389	0.37228779
401.602	0.36943646
401.816	0.36750971
402.029	0.36793154
402.242	0.36531274
402.456	0.36364093
402.669	0.36163978
402.882	0.35858686
403.095	0.35940039
403.309	0.35816627
403.522	0.35672136
403.735	0.35528939
403.948	0.35350359
404.161	0.35386616
404.375	0.35384051
404.588	0.35200987
404.801	0.35056898
405.014	0.34863894
405.227	0.34823765
405.44	0.34778373
405.653	0.34684229
405.866	0.34463265
406.079	0.34319744
406.293	0.34172997
406.506	0.34054723
406.719	0.33882155
406.932	0.33706204
407.145	0.33445715
407.358	0.33525091
407.571	0.33355116
407.784	0.33304277
407.996	0.33225817
408.209	0.33072417
408.422	0.32929376
408.635	0.32873821
408.848	0.32718352
409.061	0.32573619
409.274	0.32417511
409.487	0.32249983
409.7	0.32171167
409.912	0.32118461
410.125	0.32003164
410.338	0.31907423
410.551	0.31834107
410.764	0.31732741
410.976	0.31685377
411.189	0.3158706
411.402	0.31447727
411.615	0.3136328
411.827	0.31230651
412.04	0.31152054
412.253	0.31053807
412.465	0.30912484
412.678	0.30819849
412.891	0.30790196
413.103	0.3061516
413.316	0.30527998
413.529	0.30473681
413.741	0.30407603
413.954	0.30373574
414.166	0.30293699
414.379	0.30207499
414.591	0.30198029
414.804	0.30085856
415.016	0.29976802
415.229	0.29885172
415.441	0.29772924
415.654	0.29710333
415.866	0.29626774
416.079	0.29605537
416.291	0.29519071
416.504	0.29518431
416.716	0.29468199
416.928	0.29421538
417.141	0.29322243
417.353	0.29252884
417.566	0.29077691
417.778	0.29035564
417.99	0.28878972
418.203	0.28756952
418.415	0.28652803
418.627	0.28607224
418.839	0.28535336
419.052	0.28563109
419.264	0.28492163
419.476	0.28466903
419.688	0.28439523
419.901	0.28425019
420.113	0.28350224
420.325	0.28267569
420.537	0.28147132
420.749	0.28139469
420.961	0.28088698
421.174	0.27999688
421.386	0.27895943
421.598	0.27831157
421.81	0.27789271
422.022	0.27725504
422.234	0.27641193
422.446	0.27569207
422.658	0.27529125
422.87	0.27497509
423.082	0.27438683
423.294	0.27382465
423.506	0.27358061
423.718	0.27286388
423.93	0.27199282
424.142	0.27127281
424.354	0.27052774
424.566	0.27017496
424.778	0.26960833
424.99	0.26881718
425.202	0.26793438
425.414	0.26792971
425.625	0.26788854
425.837	0.26701186
426.049	0.26674706
426.261	0.26644394
426.473	0.26582403
426.684	0.26567826
426.896	0.26524861
427.108	0.2644035
427.32	0.26439819
427.531	0.26368635
427.743	0.2631573
427.955	0.26338588
428.167	0.26297911
428.378	0.26236298
428.59	0.26202377
428.802	0.26167543
429.013	0.26116055
429.225	0.26056588
429.436	0.25989396
429.648	0.25962139
429.86	0.25950748
430.071	0.25938381
430.283	0.2590586
430.494	0.25870142
430.706	0.25863881
430.917	0.25797234
431.129	0.25763804
431.34	0.25719438
431.552	0.25684334
431.763	0.25658389
431.975	0.25651958
432.186	0.25575048
432.398	0.25579862
432.609	0.25499133
432.821	0.25473621
433.032	0.25430372
433.243	0.25386676
433.455	0.25364439
433.666	0.25380456
433.877	0.25357832
434.089	0.25336124
434.3	0.25284281
434.511	0.25240058
434.723	0.25195776
434.934	0.25129845
435.145	0.25045632
435.356	0.24999231
435.568	0.24978571
435.779	0.24932385
435.99	0.24875808
436.201	0.24835571
436.412	0.24798796
436.624	0.2480354
436.835	0.24799249
437.046	0.24797366
437.257	0.24785235
437.468	0.2481355
437.679	0.24813532
437.89	0.24788058
438.101	0.2476719
438.312	0.24731207
438.523	0.24712996
438.734	0.24709889
438.945	0.24691474
439.156	0.2465925
439.367	0.24666863
439.578	0.2465691
439.789	0.24600707
440	0.24584309
440.211	0.24532115
440.422	0.24499313
440.633	0.24491845
440.844	0.24436861
441.055	0.24406636
441.266	0.24413976
441.477	0.24367902
441.687	0.24358235
441.898	0.24351466
442.109	0.2433532
442.32	0.24333105
442.531	0.24296289
442.741	0.2425258
442.952	0.2424101
443.163	0.24229489
443.374	0.24165247
443.584	0.24133066
443.795	0.24133107
444.006	0.24121845
444.216	0.24114813
444.427	0.24087058
444.638	0.24051279
444.848	0.24040271
445.059	0.24024429
445.27	0.2399657
445.48	0.23978117
445.691	0.23963481
445.901	0.23957748
446.112	0.23946511
446.323	0.23934956
446.533	0.23910108
446.744	0.23889003
446.954	0.23856502
447.165	0.2383931
447.375	0.23833045
447.586	0.23830662
447.796	0.23833831
448.006	0.2382077
448.217	0.23805472
448.427	0.23811225
448.638	0.23775168
448.848	0.23726191
449.058	0.2370183
449.269	0.23687803
449.479	0.23675152
449.689	0.23667365
449.9	0.23662391
450.11	0.23668813
450.32	0.23681479
450.531	0.2365512
450.741	0.23631185
450.951	0.23623789
451.161	0.23604168
451.372	0.23582176
451.582	0.23593042
451.792	0.2356913
452.002	0.23572255
452.212	0.23547391
452.422	0.23539129
452.633	0.2353039
452.843	0.23533501
453.053	0.23486971
453.263	0.23485107
453.473	0.23466857
453.683	0.23476474
453.893	0.23450967
454.103	0.23432954
454.313	0.23422905
454.523	0.23421232
454.733	0.23412422
454.943	0.23417727
455.153	0.2340188
455.363	0.23402574
455.573	0.23388841
455.783	0.23375437
455.993	0.2334701
456.203	0.23343213
456.413	0.23332341
456.623	0.2331584
456.833	0.23325581
457.042	0.23323928
457.252	0.23326539
457.462	0.23345671
457.672	0.23340097
457.882	0.23334808
458.091	0.23344237
458.301	0.2329999
458.511	0.23309011
458.721	0.23300158
458.931	0.23286975
459.14	0.23281006
459.35	0.23285183
459.56	0.23302586
459.769	0.23338387
459.979	0.23324445
460.189	0.23313087
460.398	0.23323243
460.608	0.23319505
460.817	0.23308575
461.027	0.23285723
461.237	0.23264306
461.446	0.23270854
461.656	0.23286368
461.865	0.23287549
462.075	0.23296096
462.284	0.23310154
462.494	0.23304327
462.703	0.23311353
462.913	0.23323884
463.122	0.23313158
463.332	0.23312705
463.541	0.23329775
463.751	0.23321124
463.96	0.23338628
464.169	0.23333665
464.379	0.23340035
464.588	0.23354009
464.797	0.23363922
465.007	0.23359488
465.216	0.23362423
465.425	0.23366597
465.635	0.23388037
465.844	0.23384924
466.053	0.23390018
466.263	0.23389434
466.472	0.23387037
466.681	0.23396166
466.89	0.23398174
467.099	0.23407454
467.309	0.23415516
467.518	0.23435899
467.727	0.23453964
467.936	0.23454217
468.145	0.2347454
468.354	0.23500994
468.563	0.23502106
468.772	0.23513651
468.982	0.23515727
469.191	0.23529444
469.4	0.23544349
469.609	0.23555652
469.818	0.23577535
470.027	0.23592845
470.236	0.23600423
470.445	0.23612211
470.654	0.23614717
470.863	0.236137
471.072	0.23617481
471.28	0.23608337
471.489	0.23629515
471.698	0.23640027
471.907	0.23647481
472.116	0.23664994
472.325	0.23692307
472.534	0.23713703
472.743	0.23725555
472.951	0.23745265
473.16	0.23770472
473.369	0.23781604
473.578	0.23792117
473.786	0.23820371
473.995	0.23834498
474.204	0.23863867
474.413	0.2386909
474.621	0.23892546
474.83	0.23919866
475.039	0.23944666
475.247	0.23959195
475.456	0.2396909
475.665	0.23982201
475.873	0.23997095
476.082	0.23999891
476.291	0.24013988
476.499	0.24039644
476.708	0.24047391
476.916	0.24073296
477.125	0.24093201
477.333	0.24108959
477.542	0.24137776
477.75	0.24161223
477.959	0.2417917
478.167	0.2421797
478.376	0.24237878
478.584	0.24258239
478.793	0.24285694
479.001	0.24301637
479.209	0.24313451
479.418	0.24328047
479.626	0.24343453
479.834	0.24367127
480.043	0.24390355
480.251	0.24413312
480.459	0.24442922
480.668	0.2447391
480.876	0.24504771
481.084	0.24521192
481.293	0.24544641
481.501	0.24563739
481.709	0.24599046
481.917	0.24617925
482.125	0.24644875
482.334	0.24676467
482.542	0.2470263
482.75	0.24727376
482.958	0.24767249
483.166	0.24795917
483.374	0.24826274
483.583	0.24852438
483.791	0.24868674
483.999	0.24893255
484.207	0.24925008
484.415	0.24940701
484.623	0.2496052
484.831	0.24985577
485.039	0.25018706
485.247	0.25049735
485.455	0.25088454
485.663	0.25121238
485.871	0.25154144
486.079	0.25176958
486.287	0.25211196
486.495	0.25231112
486.702	0.25261125
486.91	0.2529124
487.118	0.25324314
487.326	0.25354528
487.534	0.25398641
487.742	0.25438056
487.95	0.25469633
488.157	0.25508434
488.365	0.25548817
488.573	0.25579399
488.781	0.25615356
488.988	0.25651001
489.196	0.25686795
489.404	0.25727083
489.612	0.25752514
489.819	0.25777978
490.027	0.25813793
490.235	0.25840699
490.442	0.25878094
490.65	0.25908914
490.857	0.25954306
491.065	0.25994365
491.273	0.26030223
491.48	0.26061383
491.688	0.26107412
491.895	0.26143694
492.103	0.26173858
492.31	0.26201637
492.518	0.26246229
492.725	0.26288644
492.933	0.2633384
493.14	0.26368111
493.348	0.26395858
493.555	0.26436262
493.763	0.26473268
493.97	0.26505016
494.177	0.26543162
494.385	0.26581622
494.592	0.26627647
494.8	0.2666799
495.007	0.26714887
495.214	0.26761653
495.422	0.26803485
495.629	0.26848955
495.836	0.26892484
496.043	0.26939957
496.251	0.26990433
496.458	0.27032379
496.665	0.27070548
496.872	0.27114282
497.08	0.27150294
497.287	0.27187726
497.494	0.27232525
497.701	0.2727892
497.908	0.27326597
498.115	0.27379089
498.322	0.27421863
498.53	0.2747156
498.737	0.27522621
498.944	0.27558808
499.151	0.27604034
499.358	0.27647996
499.565	0.27688174
499.772	0.27742848
499.979	0.2779172
500.186	0.27846019
500.393	0.27894579
500.6	0.27943569
500.807	0.27988605
501.014	0.28040195
501.221	0.28089328
501.427	0.28136196
501.634	0.28179727
501.841	0.28227294
502.048	0.28277413
502.255	0.28320267
502.462	0.2836299
502.669	0.28408118
502.875	0.28460806
503.082	0.28506181
503.289	0.28554133
503.496	0.28601937
503.702	0.28655577
503.909	0.28709908
504.116	0.28763165
504.323	0.28814007
504.529	0.28874355
504.736	0.28928825
504.943	0.28971473
505.149	0.29029523
505.356	0.29083177
505.563	0.29133741
505.769	0.29184059
505.976	0.29229986
506.182	0.29284019
506.389	0.29347063
506.595	0.29403378
506.802	0.29458467
507.008	0.2951283
507.215	0.29567299
507.421	0.29617818
507.628	0.29671473
507.834	0.29718596
508.041	0.2976738
508.247	0.29814882
508.454	0.29864248
508.66	0.2991209
508.866	0.29971938
509.073	0.30027078
509.279	0.30083944
509.486	0.30137692
509.692	0.30193853
509.898	0.30260375
510.105	0.30325395
510.311	0.30376838
510.517	0.30438684
510.723	0.30497778
510.93	0.30554225
511.136	0.30618113
511.342	0.30670584
511.548	0.30724667
511.754	0.30788055
511.961	0.30833871
512.167	0.30888955
512.373	0.30950012
512.579	0.31010189
512.785	0.31067919
512.991	0.31129106
513.197	0.3118138
513.404	0.31250697
513.61	0.31312527
513.816	0.31372831
514.022	0.3143059
514.228	0.31482344
514.434	0.31532494
514.64	0.31596065
514.846	0.31657983
515.052	0.3171471
515.258	0.31774439
515.464	0.31830049
515.669	0.31900042
515.875	0.31968574
516.081	0.32026067
516.287	0.32088819
516.493	0.32154126
516.699	0.32208329
516.905	0.32268076
517.111	0.32319511
517.316	0.32380942
517.522	0.32439564
517.728	0.32499655
517.934	0.32560823
518.139	0.32623317
518.345	0.32681051
518.551	0.32750815
518.757	0.32811012
518.962	0.32879766
519.168	0.32937959
519.374	0.32991322
519.579	0.33059296
519.785	0.33129403
519.991	0.33194466
520.196	0.33262754
520.402	0.33320622
520.607	0.33388914
520.813	0.33466792
521.018	0.33526566
521.224	0.33580174
521.429	0.33645341
521.635	0.33707427
521.84	0.33773033
522.046	0.33836586
522.251	0.33896939
522.457	0.33961761
522.662	0.34031393
522.868	0.34092758
523.073	0.34152033
523.279	0.34216965
523.484	0.34276407
523.689	0.34335624
523.895	0.34402914
524.1	0.34471623
524.305	0.34534372
524.511	0.34607919
524.716	0.34677914
524.921	0.34739787
525.126	0.34808672
525.332	0.34867593
525.537	0.34938784
525.742	0.35012188
525.947	0.35079547
526.153	0.35139038
526.358	0.35214503
526.563	0.35279645
526.768	0.35355346
526.973	0.35412677
527.178	0.35473729
527.383	0.35529367
527.588	0.35601082
527.794	0.35660397
527.999	0.35724014
528.204	0.3578733
528.409	0.35853855
528.614	0.35924342
528.819	0.35991844
529.024	0.36048998
529.229	0.36117599
529.434	0.36191186
529.639	0.36254348
529.843	0.36320956
530.048	0.36381242
530.253	0.36441611
530.458	0.36514903
530.663	0.36572706
530.868	0.36639522
531.073	0.36703731
531.278	0.36769909
531.482	0.3683826
531.687	0.36907564
531.892	0.36968561
532.097	0.37031071
532.302	0.370948
532.506	0.37162861
532.711	0.37224144
532.916	0.37287918
533.12	0.37356385
533.325	0.37426689
533.53	0.37505915
533.734	0.37572157
533.939	0.37641798
534.144	0.3770984
534.348	0.37776563
534.553	0.37842502
534.757	0.37909653
534.962	0.37973076
535.167	0.38037365
535.371	0.38095415
535.576	0.38165656
535.78	0.38242108
535.985	0.38312721
536.189	0.38377832
536.394	0.3845056
536.598	0.38516843
536.803	0.38593447
537.007	0.38661378
537.211	0.38722693
537.416	0.3878475
537.62	0.38851403
537.825	0.3891374
538.029	0.38990756
538.233	0.39049476
538.438	0.39116852
538.642	0.39174393
538.846	0.39240803
539.05	0.39302864
539.255	0.39360741
539.459	0.3941726
539.663	0.39478503
539.867	0.39538227
540.072	0.39601513
540.276	0.39663471
540.48	0.39737271
540.684	0.39806824
540.888	0.39874832
541.092	0.39947021
541.297	0.40009879
541.501	0.40076549
541.705	0.40143392
541.909	0.4019675
542.113	0.40255554
542.317	0.40317281
542.521	0.40372028
542.725	0.40440457
542.929	0.40501411
543.133	0.40566763
543.337	0.4063278
543.541	0.40700493
543.745	0.40760076
543.949	0.40829891
544.153	0.40885786
544.357	0.40946981
544.56	0.41007907
544.764	0.41074523
544.968	0.41127958
545.172	0.4117687
545.376	0.41238275
545.58	0.41303276
545.783	0.41365393
545.987	0.41420897
546.191	0.41473156
546.395	0.4153185
546.598	0.41600636
546.802	0.4165533
547.006	0.4171782
547.21	0.41768966
547.413	0.41836397
547.617	0.41899059
547.821	0.41963133
548.024	0.42024272
548.228	0.42079121
548.431	0.42134883
548.635	0.42204279
548.839	0.42253922
549.042	0.42312145
549.246	0.42365577
549.449	0.4241772
549.653	0.42476431
549.856	0.42525854
550.06	0.4257138
550.263	0.42630957
550.467	0.42686077
550.67	0.42749
550.874	0.42798688
551.077	0.42856611
551.28	0.42920592
551.484	0.42985482
551.687	0.43036886
551.891	0.43094624
552.094	0.43136717
552.297	0.43192568
552.501	0.43246747
552.704	0.43295539
552.907	0.43335078
553.11	0.43386414
553.314	0.4343316
553.517	0.43484761
553.72	0.43540995
553.923	0.43590051
554.127	0.4363332
554.33	0.43678198
554.533	0.43725787
554.736	0.43760781
554.939	0.43812215
555.142	0.43872156
555.345	0.4392353
555.549	0.43980453
555.752	0.44034264
555.955	0.44080832
556.158	0.44146467
556.361	0.44196858
556.564	0.44232837
556.767	0.44276054
556.97	0.44325539
557.173	0.44378405
557.376	0.44426579
557.579	0.44466915
557.782	0.44513971
557.984	0.44555402
558.187	0.44599672
558.39	0.44638946
558.593	0.44683953
558.796	0.44722897
558.999	0.44758668
559.202	0.44801665
559.404	0.44840382
559.607	0.44883144
559.81	0.44918386
560.013	0.44955714
560.216	0.44997619
560.418	0.45046021
560.621	0.45084375
560.824	0.45132934
561.026	0.45178933
561.229	0.45221649
561.432	0.45262787
561.634	0.45301224
561.837	0.45334183
562.04	0.45375829
562.242	0.45417273
562.445	0.45446587
562.647	0.45484477
562.85	0.45516651
563.053	0.45548844
563.255	0.45589832
563.458	0.45628494
563.66	0.45658462
563.863	0.45705596
