Data from 0_1_mm_pl_50pc_Absorbance__0__15-51-46-720.txt Node

Date: Fri Feb 24 15:51:46 CET 2023
User: Ange
Spectrometer: FLMT08341
Trigger mode: 0
Integration Time (sec): 1.000000E-2
Scans to average: 400
Electric dark correction enabled: true
Nonlinearity correction enabled: false
Boxcar width: 3
XAxis mode: Wavelengths
Number of Pixels in Spectrum: 3648
>>>>>Begin Spectral Data<<<<<
345.271	0.01137616
345.487	0.01618894
345.704	-0.00339701
345.921	-0.00031687
346.137	-0.00641549
346.354	0.002594
346.571	-0.00784282
346.787	-0.11018913
347.004	0.01267906
347.22	-0.14636472
347.437	-0.13633286
347.653	-0.37645431
347.87	0.575345
348.086	-0
348.303	-0
348.519	0.66622785
348.736	0.61290731
348.952	0.60795505
349.169	0.62833828
349.385	0.66392321
349.601	0.66066867
349.818	0.64816538
350.034	0.63623443
350.251	0.63124591
350.467	0.64001372
350.683	0.61673599
350.9	0.61511228
351.116	0.61549563
351.332	0.60764846
351.549	0.63104988
351.765	0.64822914
351.981	0.65572811
352.197	0.68529619
352.414	0.71275029
352.63	0.72330051
352.846	0.74232299
353.062	0.72084513
353.278	0.69607669
353.495	0.716185
353.711	0.71971726
353.927	0.72221701
354.143	0.72256526
354.359	0.71402098
354.575	0.71282052
354.792	0.74724945
355.008	0.73097736
355.224	0.72021739
355.44	0.70748601
355.656	0.69909857
355.872	0.71496435
356.088	0.76395005
356.304	0.76162989
356.52	0.76191843
356.736	0.76754013
356.952	0.77654339
357.168	0.77926849
357.384	0.78458933
357.6	0.75093417
357.816	0.76226289
358.032	0.77497327
358.248	0.79996398
358.464	0.80395408
358.679	0.81779811
358.895	0.81337148
359.111	0.82941584
359.327	0.80573759
359.543	0.81014728
359.759	0.81997777
359.974	0.81172948
360.19	0.80436744
360.406	0.80861957
360.622	0.79895844
360.838	0.79454609
361.053	0.79986943
361.269	0.79665248
361.485	0.80360358
361.701	0.80964893
361.916	0.79501218
362.132	0.79739387
362.348	0.80639172
362.563	0.80686
362.779	0.79713255
362.995	0.79959056
363.21	0.81234685
363.426	0.81938021
363.641	0.82108009
363.857	0.83045726
364.073	0.82135727
364.288	0.81099513
364.504	0.82984774
364.719	0.82493401
364.935	0.82055397
365.15	0.82274191
365.366	0.81954343
365.581	0.83302864
365.797	0.83691244
366.012	0.81764504
366.228	0.80351296
366.443	0.82186025
366.658	0.82410148
366.874	0.81688718
367.089	0.82166894
367.305	0.82886977
367.52	0.83219562
367.735	0.8358313
367.951	0.82124844
368.166	0.82131526
368.381	0.83706822
368.597	0.82709663
368.812	0.8312914
369.027	0.83568055
369.243	0.83900997
369.458	0.86062274
369.673	0.86091634
369.888	0.85718175
370.104	0.84856165
370.319	0.8490031
370.534	0.8422454
370.749	0.83990689
370.964	0.8340512
371.179	0.83141033
371.395	0.82173808
371.61	0.83086836
371.825	0.81859434
372.04	0.82143053
372.255	0.81782113
372.47	0.81184572
372.685	0.80065127
372.9	0.79948406
373.115	0.79039722
373.33	0.79514403
373.545	0.78970023
373.76	0.79163904
373.975	0.7828659
374.19	0.77733754
374.405	0.77732389
374.62	0.78343758
374.835	0.79039999
375.05	0.78916615
375.265	0.78523725
375.48	0.7869981
375.695	0.8053554
375.91	0.79853327
376.125	0.78373934
376.339	0.7664891
376.554	0.76637731
376.769	0.76448922
376.984	0.76270605
377.199	0.75839664
377.414	0.75532688
377.628	0.76468766
377.843	0.76846553
378.058	0.76546467
378.273	0.76709661
378.487	0.76399586
378.702	0.76222853
378.917	0.76085642
379.131	0.75112997
379.346	0.74139898
379.561	0.73340923
379.775	0.72666783
379.99	0.71817391
380.205	0.70624102
380.419	0.69952106
380.634	0.6883453
380.848	0.69091236
381.063	0.69126806
381.278	0.69356877
381.492	0.68828443
381.707	0.69271761
381.921	0.68893627
382.136	0.69687586
382.35	0.68929368
382.565	0.68214233
382.779	0.6784698
382.994	0.679047
383.208	0.66987148
383.422	0.67403204
383.637	0.6679188
383.851	0.67116567
384.066	0.67187344
384.28	0.66989482
384.494	0.66788219
384.709	0.66814296
384.923	0.66286821
385.137	0.65826961
385.352	0.65301297
385.566	0.65333691
385.78	0.64842105
385.995	0.64253732
386.209	0.63717435
386.423	0.63827949
386.637	0.63805812
386.852	0.63108072
387.066	0.62477677
387.28	0.61900264
387.494	0.62076117
387.708	0.61942052
387.923	0.61349639
388.137	0.61267871
388.351	0.6130447
388.565	0.61259707
388.779	0.61217752
388.993	0.61351343
389.207	0.61214468
389.421	0.60906287
389.635	0.60292699
389.85	0.59872676
390.064	0.59550862
390.278	0.59275936
390.492	0.58841088
390.706	0.58536611
390.92	0.58362184
391.134	0.58364612
391.348	0.5862323
391.561	0.58224432
391.775	0.57765644
391.989	0.5715788
392.203	0.57015146
392.417	0.56870785
392.631	0.5672404
392.845	0.56119697
393.059	0.56006284
393.273	0.55821956
393.486	0.55343886
393.7	0.54739154
393.914	0.54519655
394.128	0.54110244
394.342	0.53771484
394.555	0.53185703
394.769	0.52946169
394.983	0.52912963
395.197	0.52871049
395.41	0.52522076
395.624	0.52407503
395.838	0.52160284
396.051	0.5244512
396.265	0.52041978
396.479	0.51877001
396.692	0.51599928
396.906	0.51216004
397.12	0.50828673
397.333	0.507476
397.547	0.50274318
397.76	0.50312661
397.974	0.50080112
398.187	0.49917973
398.401	0.49869223
398.614	0.49690101
398.828	0.49438545
399.041	0.49311001
399.255	0.49016269
399.468	0.48824329
399.682	0.48624128
399.895	0.4845936
400.109	0.48228682
400.322	0.47993739
400.536	0.47565692
400.749	0.4750726
400.962	0.47285089
401.176	0.4704232
401.389	0.46732807
401.602	0.46330647
401.816	0.46174615
402.029	0.46158445
402.242	0.45806878
402.456	0.45610719
402.669	0.45334737
402.882	0.44989677
403.095	0.45056291
403.309	0.44840146
403.522	0.44670079
403.735	0.44494865
403.948	0.44329116
404.161	0.44461976
404.375	0.44399399
404.588	0.44175012
404.801	0.4400263
405.014	0.43708725
405.227	0.43676479
405.44	0.43539408
405.653	0.43285357
405.866	0.43004624
406.079	0.42798071
406.293	0.42615637
406.506	0.42495417
406.719	0.42258544
406.932	0.42043616
407.145	0.41706725
407.358	0.41778387
407.571	0.41559945
407.784	0.41432337
407.996	0.41331543
408.209	0.41060746
408.422	0.40835895
408.635	0.40792657
408.848	0.40581094
409.061	0.40360213
409.274	0.40172773
409.487	0.39948403
409.7	0.39891531
409.912	0.39862478
410.125	0.39665265
410.338	0.39509118
410.551	0.39399008
410.764	0.3925061
410.976	0.39108576
411.189	0.38952375
411.402	0.38728355
411.615	0.38647346
411.827	0.38512042
412.04	0.38427571
412.253	0.38323567
412.465	0.38171581
412.678	0.38001525
412.891	0.37948503
413.103	0.37695077
413.316	0.37537535
413.529	0.37506546
413.741	0.37406612
413.954	0.3733326
414.166	0.37254506
414.379	0.37098085
414.591	0.37094535
414.804	0.36954889
415.016	0.36804812
415.229	0.36665449
415.441	0.36496551
415.654	0.36434178
415.866	0.36332476
416.079	0.36224936
416.291	0.36137728
416.504	0.3606057
416.716	0.35977912
416.928	0.35941375
417.141	0.35803443
417.353	0.35736225
417.566	0.35553782
417.778	0.35475546
417.99	0.35268484
418.203	0.35086928
418.415	0.3495229
418.627	0.34876703
418.839	0.34769658
419.052	0.34779147
419.264	0.34689048
419.476	0.34670796
419.688	0.34640726
419.901	0.34562236
420.113	0.34437937
420.325	0.34351103
420.537	0.34200705
420.749	0.34133397
420.961	0.34048977
421.174	0.33941403
421.386	0.33829713
421.598	0.33721758
421.81	0.33614878
422.022	0.33521192
422.234	0.33403234
422.446	0.33286555
422.658	0.33200138
422.87	0.33142209
423.082	0.3307698
423.294	0.3297795
423.506	0.32935798
423.718	0.32863637
423.93	0.32773408
424.142	0.32659696
424.354	0.32562643
424.566	0.32468364
424.778	0.32413211
424.99	0.32303204
425.202	0.32227395
425.414	0.3217529
425.625	0.32157824
425.837	0.32040944
426.049	0.32024
426.261	0.31957239
426.473	0.31862128
426.684	0.31767682
426.896	0.31714921
427.108	0.31584836
427.32	0.31583734
427.531	0.31473553
427.743	0.31390862
427.955	0.31384403
428.167	0.31312139
428.378	0.31224488
428.59	0.31190142
428.802	0.31120287
429.013	0.31050354
429.225	0.30971924
429.436	0.30887546
429.648	0.30861073
429.86	0.30831597
430.071	0.30817217
430.283	0.30766529
430.494	0.30729395
430.706	0.30697982
430.917	0.30632591
431.129	0.30585921
431.34	0.30498447
431.552	0.30435402
431.763	0.30363675
431.975	0.30326864
432.186	0.30260402
432.398	0.30212304
432.609	0.30112997
432.821	0.30065215
433.032	0.30020261
433.243	0.29976124
433.455	0.29920848
433.666	0.29886553
433.877	0.29878018
434.089	0.29810305
434.3	0.29772253
434.511	0.29703584
434.723	0.29664159
434.934	0.29588956
435.145	0.29504112
435.356	0.29413218
435.568	0.29416021
435.779	0.29347567
435.99	0.29266029
436.201	0.29200358
436.412	0.29154702
436.624	0.29123216
436.835	0.29086768
437.046	0.29058295
437.257	0.29018162
437.468	0.29015839
437.679	0.29013185
437.89	0.28967335
438.101	0.28949555
438.312	0.28931574
438.523	0.28872733
438.734	0.28839688
438.945	0.28790081
439.156	0.28699012
439.367	0.28686138
439.578	0.28657555
439.789	0.28564987
440	0.28532718
440.211	0.28489459
440.422	0.28478396
440.633	0.2845998
440.844	0.28404533
441.055	0.28357226
441.266	0.28374411
441.477	0.28330909
441.687	0.28300641
441.898	0.28265587
442.109	0.28240828
442.32	0.28197905
442.531	0.28146215
442.741	0.28068951
442.952	0.28038084
443.163	0.27999862
443.374	0.27936083
443.584	0.27869616
443.795	0.27861708
444.006	0.27839496
444.216	0.27810338
444.427	0.27754139
444.638	0.27730409
444.848	0.27702657
445.059	0.27699768
445.27	0.27665275
445.48	0.27637214
445.691	0.27625542
445.901	0.27611632
446.112	0.27577695
446.323	0.27523652
446.533	0.27486155
446.744	0.27428633
446.954	0.27380354
447.165	0.27353075
447.375	0.27331298
447.586	0.27314669
447.796	0.27311384
448.006	0.27282046
448.217	0.27287036
448.427	0.27254879
448.638	0.27207227
448.848	0.27154763
449.058	0.27127797
449.269	0.27107575
449.479	0.27075639
449.689	0.27030313
449.9	0.27019733
450.11	0.2701137
450.32	0.27015802
450.531	0.26973889
450.741	0.26943723
450.951	0.2693722
451.161	0.26926532
451.372	0.26916858
451.582	0.26933739
451.792	0.26899565
452.002	0.26887455
452.212	0.26864082
452.422	0.26842874
452.633	0.26823904
452.843	0.26814605
453.053	0.26742365
453.263	0.26752609
453.473	0.26723843
453.683	0.26725829
453.893	0.26688589
454.103	0.2667435
454.313	0.26636926
454.523	0.26636832
454.733	0.26599039
454.943	0.26615462
455.153	0.26578032
455.363	0.26578568
455.573	0.26554509
455.783	0.26544687
455.993	0.26512315
456.203	0.26521021
456.413	0.26480001
456.623	0.2645912
456.833	0.26451282
457.042	0.26435915
457.252	0.26415591
457.462	0.26401243
457.672	0.26363748
457.882	0.26358653
458.091	0.26325363
458.301	0.26279345
458.511	0.26248962
458.721	0.26245745
458.931	0.26234892
459.14	0.26208592
459.35	0.26207792
459.56	0.26225732
459.769	0.2623171
459.979	0.26230672
460.189	0.26194703
460.398	0.26187765
460.608	0.26191215
460.817	0.26173911
461.027	0.26167521
461.237	0.26156573
461.446	0.26139369
461.656	0.26154831
461.865	0.26146245
462.075	0.26137415
462.284	0.2612797
462.494	0.26114537
462.703	0.26099044
462.913	0.26100987
463.122	0.2607398
463.332	0.26074139
463.541	0.26073231
463.751	0.26068685
463.96	0.26060031
464.169	0.26053916
464.379	0.26078971
464.588	0.26099025
464.797	0.26089271
465.007	0.26080798
465.216	0.26075962
465.425	0.2608884
465.635	0.26101588
465.844	0.26081061
466.053	0.26077099
466.263	0.26072685
466.472	0.26064967
466.681	0.26065104
466.89	0.26053567
467.099	0.26056754
467.309	0.26061019
467.518	0.26059059
467.727	0.26066575
467.936	0.26071771
468.145	0.26072599
468.354	0.26086753
468.563	0.2608473
468.772	0.26080614
468.982	0.26083559
469.191	0.26102319
469.4	0.26106288
469.609	0.26111637
469.818	0.26121656
470.027	0.26136561
470.236	0.26134598
470.445	0.26134141
470.654	0.26121964
470.863	0.26122459
471.072	0.26127502
471.28	0.26113412
471.489	0.2610846
471.698	0.26110345
471.907	0.26123338
472.116	0.26143005
472.325	0.26157188
472.534	0.26165732
472.743	0.26173687
472.951	0.26210649
473.16	0.26236835
473.369	0.26234175
473.578	0.26238101
473.786	0.26263052
473.995	0.26272458
474.204	0.26293917
474.413	0.26278953
474.621	0.26300243
474.83	0.26338883
475.039	0.26356975
475.247	0.26380015
475.456	0.26408731
475.665	0.26418598
475.873	0.26434695
476.082	0.26433623
476.291	0.26433135
476.499	0.26459526
476.708	0.26442828
476.916	0.26449259
477.125	0.26477637
477.333	0.26501459
477.542	0.26514682
477.75	0.26538483
477.959	0.26553328
478.167	0.26596962
478.376	0.26604829
478.584	0.2660986
478.793	0.26617872
479.001	0.26644506
479.209	0.26651138
479.418	0.26653726
479.626	0.266559
479.834	0.26671077
480.043	0.26692727
480.251	0.26713254
480.459	0.26721399
480.668	0.26748366
480.876	0.2677746
481.084	0.26798811
481.293	0.26834666
481.501	0.26852303
481.709	0.26885541
481.917	0.26916382
482.125	0.26939656
482.334	0.26952375
482.542	0.26983155
482.75	0.27002884
482.958	0.27034235
483.166	0.27056278
483.374	0.27080454
483.583	0.27107205
483.791	0.2714296
483.999	0.27155551
484.207	0.27182333
484.415	0.27204255
484.623	0.27221029
484.831	0.27246809
485.039	0.27278013
485.247	0.27306953
485.455	0.27337721
485.663	0.27365824
485.871	0.27399109
486.079	0.27424143
486.287	0.27451121
486.495	0.2746449
486.702	0.27480608
486.91	0.27514998
487.118	0.27535402
487.326	0.27555986
487.534	0.27585325
487.742	0.27624254
487.95	0.27661162
488.157	0.27701048
488.365	0.27732133
488.573	0.27773121
488.781	0.27808875
488.988	0.2785787
489.196	0.2789369
489.404	0.27926959
489.612	0.27958007
489.819	0.27989771
490.027	0.28017793
490.235	0.2805559
490.442	0.28083686
490.65	0.28109456
490.857	0.28149157
491.065	0.28186877
491.273	0.28228893
491.48	0.28274166
491.688	0.28308507
491.895	0.28348747
492.103	0.28385342
492.31	0.28418118
492.518	0.28447994
492.725	0.28484363
492.933	0.28519702
493.14	0.28551927
493.348	0.28580921
493.555	0.28626897
493.763	0.28665395
493.97	0.28707424
494.177	0.28748903
494.385	0.28784826
494.592	0.28832632
494.8	0.28867623
495.007	0.28906546
495.214	0.28955682
495.422	0.28995231
495.629	0.29036117
495.836	0.29072302
496.043	0.29117727
496.251	0.29171005
496.458	0.29207828
496.665	0.29237108
496.872	0.2927743
497.08	0.2931207
497.287	0.29357088
497.494	0.29390321
497.701	0.29428034
497.908	0.29472379
498.115	0.29519507
498.322	0.29566063
498.53	0.29608902
498.737	0.29654138
498.944	0.29701025
499.151	0.29755236
499.358	0.29797216
499.565	0.29839478
499.772	0.29887685
499.979	0.29940795
500.186	0.29994599
500.393	0.30041068
500.6	0.30078472
500.807	0.30124739
501.014	0.30177793
501.221	0.30224927
501.427	0.30267659
501.634	0.30310707
501.841	0.30359253
502.048	0.30410054
502.255	0.30450893
502.462	0.30498684
502.669	0.30553065
502.875	0.3060642
503.082	0.30652309
503.289	0.30698836
503.496	0.30751932
503.702	0.30809365
503.909	0.30864237
504.116	0.3090597
504.323	0.30953787
504.529	0.31009982
504.736	0.31059881
504.943	0.31109901
505.149	0.31170358
505.356	0.31222741
505.563	0.3128326
505.769	0.31340664
505.976	0.31388078
506.182	0.31450204
506.389	0.3151066
506.595	0.31566532
506.802	0.31615648
507.008	0.31668023
507.215	0.31719351
507.421	0.31780717
507.628	0.3183467
507.834	0.31882491
508.041	0.31936305
508.247	0.31995623
508.454	0.32057233
508.66	0.32111786
508.866	0.32162359
509.073	0.3221443
509.279	0.32273627
509.486	0.32327973
509.692	0.32378441
509.898	0.32433065
510.105	0.32493248
510.311	0.32552534
510.517	0.32612906
510.723	0.32667393
510.93	0.32722146
511.136	0.32787016
511.342	0.32845163
511.548	0.32901439
511.754	0.3296788
511.961	0.33030755
512.167	0.33084962
512.373	0.33143304
512.579	0.33203742
512.785	0.33263723
512.991	0.3332594
513.197	0.3338355
513.404	0.33444083
513.61	0.33517912
513.816	0.33578923
514.022	0.33643756
514.228	0.33703479
514.434	0.33763196
514.64	0.3382692
514.846	0.3388918
515.052	0.3393735
515.258	0.3400774
515.464	0.34065788
515.669	0.34128092
515.875	0.34188103
516.081	0.34248272
516.287	0.34314774
516.493	0.34386993
516.699	0.34439607
516.905	0.34501437
517.111	0.34566117
517.316	0.34637132
517.522	0.34707072
517.728	0.34769233
517.934	0.34837485
518.139	0.34907848
518.345	0.34968648
518.551	0.35033111
518.757	0.3509295
518.962	0.35151563
519.168	0.35214019
519.374	0.35261177
519.579	0.35319994
519.785	0.35387496
519.991	0.35447144
520.196	0.35506283
520.402	0.35566297
520.607	0.35628094
520.813	0.35708108
521.018	0.35778637
521.224	0.35836051
521.429	0.35909113
521.635	0.35979608
521.84	0.36038869
522.046	0.36114957
522.251	0.36177999
522.457	0.36238383
522.662	0.36315262
522.868	0.36385966
523.073	0.36456775
523.279	0.36533111
523.484	0.36584111
523.689	0.36648213
523.895	0.36725452
524.1	0.36783793
524.305	0.36844765
524.511	0.36910926
524.716	0.369802
524.921	0.37056975
525.126	0.37122845
525.332	0.37187876
525.537	0.37257784
525.742	0.37332534
525.947	0.37406568
526.153	0.37472501
526.358	0.37542431
526.563	0.37617759
526.768	0.37685643
526.973	0.37758282
527.178	0.37814232
527.383	0.37874456
527.588	0.37945826
527.794	0.38016838
527.999	0.38086348
528.204	0.38158523
528.409	0.38225489
528.614	0.38304244
528.819	0.38377697
529.024	0.38443043
529.229	0.38502861
529.434	0.38577091
529.639	0.38642285
529.843	0.38712929
530.048	0.38776862
530.253	0.38835737
530.458	0.38914378
530.663	0.38988873
530.868	0.39054924
531.073	0.39122039
531.278	0.39190524
531.482	0.39261407
531.687	0.39332632
531.892	0.39393849
532.097	0.39454038
532.302	0.39521124
532.506	0.39587583
532.711	0.39651734
532.916	0.39719857
533.12	0.39787262
533.325	0.39854148
533.53	0.39931295
533.734	0.39997757
533.939	0.40068232
534.144	0.40138491
534.348	0.40205063
534.553	0.40271888
534.757	0.403324
534.962	0.40398498
535.167	0.40468894
535.371	0.40535473
535.576	0.40611803
535.78	0.40685607
535.985	0.40763722
536.189	0.4084655
536.394	0.4092451
536.598	0.40983848
536.803	0.41052318
537.007	0.41118269
537.211	0.41188276
537.416	0.41250733
537.62	0.41311685
537.825	0.41374784
538.029	0.41461965
538.233	0.41521559
538.438	0.41590979
538.642	0.41649925
538.846	0.41719432
539.05	0.41784807
539.255	0.41840721
539.459	0.41898607
539.663	0.4197126
539.867	0.42036168
540.072	0.4210021
540.276	0.42168231
540.48	0.42243983
540.684	0.4231353
540.888	0.42385817
541.092	0.42451448
541.297	0.42515634
541.501	0.42581946
541.705	0.4264297
541.909	0.42703616
542.113	0.42763982
542.317	0.42823796
542.521	0.42892512
542.725	0.42961407
542.929	0.43034541
543.133	0.43106872
543.337	0.43176479
543.541	0.43247087
543.745	0.43307068
543.949	0.4337244
544.153	0.43425947
544.357	0.43486938
544.56	0.43545232
544.764	0.4360409
544.968	0.43664587
545.172	0.43720633
545.376	0.43784223
545.58	0.43850304
545.783	0.43913957
545.987	0.43971189
546.191	0.44021479
546.395	0.44089018
546.598	0.44159352
546.802	0.44222295
547.006	0.4428293
547.21	0.44335855
547.413	0.44405592
547.617	0.44478212
547.821	0.44536623
548.024	0.44599315
548.228	0.44643541
548.431	0.44701124
548.635	0.44758822
548.839	0.44809931
549.042	0.44867969
549.246	0.44924709
549.449	0.44976473
549.653	0.45040888
549.856	0.45094037
550.06	0.45156192
550.263	0.45218707
550.467	0.45276841
550.67	0.45335117
550.874	0.45389208
551.077	0.4544628
551.28	0.45510108
551.484	0.45563224
551.687	0.4561361
551.891	0.45669263
552.094	0.45714287
552.297	0.45769657
552.501	0.45832445
552.704	0.45877122
552.907	0.45930785
553.11	0.45978367
553.314	0.46026433
553.517	0.46072302
553.72	0.46127655
553.923	0.46173047
554.127	0.46229222
554.33	0.4626898
554.533	0.46328871
554.736	0.46366078
554.939	0.4642298
555.142	0.46474668
555.345	0.46524128
555.549	0.4657641
555.752	0.4663251
555.955	0.46675917
556.158	0.46738461
556.361	0.46789285
556.564	0.4683639
556.767	0.46882968
556.97	0.46932904
557.173	0.46976347
557.376	0.47025491
557.579	0.47064244
557.782	0.47106269
557.984	0.47147164
558.187	0.47196679
558.39	0.47229506
558.593	0.47284628
558.796	0.47318898
558.999	0.47359141
559.202	0.47405743
559.404	0.47438111
559.607	0.47469069
559.81	0.47509587
560.013	0.47534726
560.216	0.47582008
560.418	0.47626371
560.621	0.47666384
560.824	0.47716233
561.026	0.47763073
561.229	0.47798972
561.432	0.47841465
561.634	0.47873666
561.837	0.47906588
562.04	0.47942223
562.242	0.47981853
562.445	0.48008346
562.647	0.48051169
562.85	0.48079191
563.053	0.48115132
563.255	0.48149522
563.458	0.48190381
563.66	0.48221423
563.863	0.48267931
564.065	0.48296284
