Data from 0_1_mm_pl_90pc_Absorbance__0__15-55-36-546.txt Node

Date: Fri Feb 24 15:55:36 CET 2023
User: Ange
Spectrometer: FLMT08341
Trigger mode: 0
Integration Time (sec): 1.000000E-2
Scans to average: 400
Electric dark correction enabled: true
Nonlinearity correction enabled: false
Boxcar width: 3
XAxis mode: Wavelengths
Number of Pixels in Spectrum: 3648
>>>>>Begin Spectral Data<<<<<
345.271	0.04170298
345.487	0.04116925
345.704	0.01286966
345.921	0.01916323
346.137	-0.00195801
346.354	0.00492779
346.571	0.01602758
346.787	-0.0078379
347.004	-0.05440458
347.22	-0.18811769
347.437	-0.14659397
347.653	-0.49978681
347.87	0.49593015
348.086	0.0692892
348.303	-0
348.519	0.43571114
348.736	0.41647206
348.952	0.40882754
349.169	0.41726644
349.385	0.43751567
349.601	0.43558172
349.818	0.42787333
350.034	0.41942428
350.251	0.416703
350.467	0.4240051
350.683	0.41405117
350.9	0.41542656
351.116	0.41641379
351.332	0.41542991
351.549	0.42964989
351.765	0.44402269
351.981	0.44770869
352.197	0.46499725
352.414	0.48223177
352.63	0.49129337
352.846	0.50577518
353.062	0.50012685
353.278	0.48938207
353.495	0.50799787
353.711	0.51252371
353.927	0.51348604
354.143	0.51237298
354.359	0.50573545
354.575	0.50652009
354.792	0.52560613
355.008	0.51271695
355.224	0.50569173
355.44	0.50192388
355.656	0.50287516
355.872	0.51451882
356.088	0.54597767
356.304	0.54415391
356.52	0.55096053
356.736	0.55848393
356.952	0.56476305
357.168	0.56932476
357.384	0.57573363
357.6	0.55641837
357.816	0.56925774
358.032	0.57916333
358.248	0.59802661
358.464	0.59956459
358.679	0.60962745
358.895	0.61043414
359.111	0.62455381
359.327	0.61371493
359.543	0.61917157
359.759	0.62178925
359.974	0.62297159
360.19	0.61781696
360.406	0.61840016
360.622	0.6140007
360.838	0.6131967
361.053	0.6197416
361.269	0.620264
361.485	0.62941362
361.701	0.64036681
361.916	0.63597896
362.132	0.63836604
362.348	0.64610096
362.563	0.64472793
362.779	0.64331637
362.995	0.64649348
363.21	0.6545269
363.426	0.66225238
363.641	0.66779558
363.857	0.67596741
364.073	0.67641549
364.288	0.67227025
364.504	0.68554995
364.719	0.68578822
364.935	0.68650967
365.15	0.68946094
365.366	0.69176726
365.581	0.70357264
365.797	0.71080339
366.012	0.6988207
366.228	0.69267815
366.443	0.70916352
366.658	0.71268081
366.874	0.70665471
367.089	0.71242583
367.305	0.71895408
367.52	0.72709622
367.735	0.73083872
367.951	0.7222552
368.166	0.72568864
368.381	0.74174475
368.597	0.73486962
368.812	0.74139789
369.027	0.74754136
369.243	0.75419317
369.458	0.77460988
369.673	0.77915006
369.888	0.77842701
370.104	0.77577944
370.319	0.78251366
370.534	0.77921193
370.749	0.78101411
370.964	0.78026266
371.179	0.77932574
371.395	0.77513956
371.61	0.78698832
371.825	0.77525099
372.04	0.78146912
372.255	0.78045449
372.47	0.77517678
372.685	0.7710942
372.9	0.77416742
373.115	0.76919704
373.33	0.77965812
373.545	0.77940593
373.76	0.78437693
373.975	0.78281697
374.19	0.78344509
374.405	0.79010282
374.62	0.80165634
374.835	0.81246788
375.05	0.81647249
375.265	0.81826203
375.48	0.8266214
375.695	0.84990942
375.91	0.84612093
376.125	0.83454801
376.339	0.81856632
376.554	0.82441525
376.769	0.82894869
376.984	0.82834519
377.199	0.83036204
377.414	0.82732098
377.628	0.84266347
377.843	0.85629808
378.058	0.8585097
378.273	0.86769219
378.487	0.87187046
378.702	0.87110537
378.917	0.8806711
379.131	0.87459028
379.346	0.86334253
379.561	0.85611316
379.775	0.84974341
379.99	0.83967374
380.205	0.82944174
380.419	0.82340739
380.634	0.81401869
380.848	0.82479501
381.063	0.82965561
381.278	0.84060912
381.492	0.83984382
381.707	0.85238295
381.921	0.85556848
382.136	0.87365239
382.35	0.86894958
382.565	0.86392559
382.779	0.86272532
382.994	0.87083024
383.208	0.86130339
383.422	0.87296477
383.637	0.86984504
383.851	0.88043607
384.066	0.89113847
384.28	0.89454667
384.494	0.8964037
384.709	0.90716088
384.923	0.90378112
385.137	0.89801241
385.352	0.89392084
385.566	0.89873295
385.78	0.89630169
385.995	0.8933602
386.209	0.88818789
386.423	0.89540811
386.637	0.90354518
386.852	0.89707788
387.066	0.89342528
387.28	0.88518886
387.494	0.89671893
387.708	0.8997684
387.923	0.89336738
388.137	0.89712924
388.351	0.90464436
388.565	0.91142774
388.779	0.92074908
388.993	0.92738649
389.207	0.93124566
389.421	0.93757986
389.635	0.93088874
389.85	0.92877938
390.064	0.92122126
390.278	0.92316729
390.492	0.9211548
390.706	0.92033662
390.92	0.91617279
391.134	0.92554827
391.348	0.9407546
391.561	0.94080914
391.775	0.93289412
391.989	0.92216275
392.203	0.92416004
392.417	0.92771533
392.631	0.93090266
392.845	0.91920186
393.059	0.92538966
393.273	0.92508569
393.486	0.92199506
393.7	0.91274343
393.914	0.91517079
394.128	0.90721826
394.342	0.90207092
394.555	0.8899933
394.769	0.89115473
394.983	0.89524631
395.197	0.90130832
395.41	0.89929327
395.624	0.90227961
395.838	0.90274869
396.051	0.91692895
396.265	0.91068106
396.479	0.91170389
396.692	0.90989834
396.906	0.90266468
397.12	0.8985514
397.333	0.90202817
397.547	0.89320397
397.76	0.89910753
397.974	0.89706203
398.187	0.89634972
398.401	0.90080391
398.614	0.90013199
398.828	0.89906095
399.041	0.89863521
399.255	0.89561443
399.468	0.89388264
399.682	0.89143143
399.895	0.89145179
400.109	0.88827146
400.322	0.88253323
400.536	0.87463156
400.749	0.87842876
400.962	0.87763424
401.176	0.87486088
401.389	0.87018397
401.602	0.86129464
401.816	0.86314875
402.029	0.86776207
402.242	0.86123894
402.456	0.85755736
402.669	0.85092516
402.882	0.84185808
403.095	0.84830303
403.309	0.84443399
403.522	0.84271088
403.735	0.83782082
403.948	0.83588462
404.161	0.8446709
404.375	0.84743845
404.588	0.84371323
404.801	0.84309477
405.014	0.83741243
405.227	0.84110219
405.44	0.84071969
405.653	0.83754863
405.866	0.83197011
406.079	0.82922554
406.293	0.82539893
406.506	0.82502706
406.719	0.81947329
406.932	0.81537803
407.145	0.8084385
407.358	0.81263288
407.571	0.80889112
407.784	0.80753445
407.996	0.80602797
408.209	0.8008172
408.422	0.79672322
408.635	0.79557532
408.848	0.7919882
409.061	0.78589869
409.274	0.78180745
409.487	0.77733053
409.7	0.77717163
409.912	0.77739904
410.125	0.77458651
410.338	0.77052603
410.551	0.76954433
410.764	0.76704495
410.976	0.76524233
411.189	0.76141841
411.402	0.75553989
411.615	0.75418934
411.827	0.75268926
412.04	0.75128147
412.253	0.74800868
412.465	0.7437337
412.678	0.74085574
412.891	0.7405244
413.103	0.7332207
413.316	0.72940423
413.529	0.72899302
413.741	0.72873545
413.954	0.72724657
414.166	0.72547475
414.379	0.72206435
414.591	0.72316773
414.804	0.71896204
415.016	0.71512915
415.229	0.71077015
415.441	0.70642161
415.654	0.70511568
415.866	0.7030764
416.079	0.70050319
416.291	0.69817958
416.504	0.69774544
416.716	0.69600194
416.928	0.69462068
417.141	0.69050577
417.353	0.68895989
417.566	0.6838614
417.778	0.68268583
417.99	0.67561343
418.203	0.6716176
418.415	0.66893053
418.627	0.66701758
418.839	0.66355399
419.052	0.66498637
419.264	0.66210829
419.476	0.66161065
419.688	0.66017844
419.901	0.6582872
420.113	0.65488131
420.325	0.65194601
420.537	0.64665501
420.749	0.6451561
420.961	0.64360548
421.174	0.64037341
421.386	0.63624477
421.598	0.63422904
421.81	0.63151073
422.022	0.62835455
422.234	0.62502656
422.446	0.6212291
422.658	0.61877724
422.87	0.61733886
423.082	0.61460062
423.294	0.61226245
423.506	0.61108975
423.718	0.60897662
423.93	0.60571445
424.142	0.60294642
424.354	0.60020217
424.566	0.59743697
424.778	0.59546924
424.99	0.59262025
425.202	0.58885618
425.414	0.58740477
425.625	0.58580333
425.837	0.58272523
426.049	0.5814769
426.261	0.57870619
426.473	0.57573147
426.684	0.5741805
426.896	0.57252301
427.108	0.56949129
427.32	0.56832966
427.531	0.56544762
427.743	0.56346356
427.955	0.56266755
428.167	0.56029263
428.378	0.5575149
428.59	0.55586431
428.802	0.55319996
429.013	0.5507841
429.225	0.5480575
429.436	0.54496589
429.648	0.54323123
429.86	0.54160139
430.071	0.53950036
430.283	0.53776726
430.494	0.53570656
430.706	0.53406678
430.917	0.53217963
431.129	0.53024609
431.34	0.52757013
431.552	0.52570719
431.763	0.52332725
431.975	0.52211189
432.186	0.51918149
432.398	0.51735648
432.609	0.51388842
432.821	0.51196094
433.032	0.50979309
433.243	0.50761019
433.455	0.5049283
433.666	0.50381984
433.877	0.50236154
434.089	0.50047127
434.3	0.49840363
434.511	0.49577173
434.723	0.49401829
434.934	0.49166904
435.145	0.48869312
435.356	0.48597751
435.568	0.48420856
435.779	0.48197605
435.99	0.47950296
436.201	0.47715566
436.412	0.47513565
436.624	0.47393907
436.835	0.47235605
437.046	0.47111837
437.257	0.46928903
437.468	0.46846066
437.679	0.46707486
437.89	0.4654327
438.101	0.46383175
438.312	0.46203125
438.523	0.45986221
438.734	0.45798587
438.945	0.4559787
439.156	0.45371587
439.367	0.45207097
439.578	0.45040503
439.789	0.44781442
440	0.44623707
440.211	0.4444408
440.422	0.44286232
440.633	0.44120147
440.844	0.43886155
441.055	0.43669532
441.266	0.43559241
441.477	0.43336697
441.687	0.43173742
441.898	0.42988773
442.109	0.42804808
442.32	0.42667852
442.531	0.42455677
442.741	0.42200938
442.952	0.42059868
443.163	0.4188726
443.374	0.41677549
443.584	0.41487715
443.795	0.41332464
444.006	0.41192717
444.216	0.41042004
444.427	0.40798103
444.638	0.40620865
444.848	0.40453233
445.059	0.40279853
445.27	0.40087432
445.48	0.39902216
445.691	0.39762197
445.901	0.39642415
446.112	0.39477609
446.323	0.39272671
446.533	0.3911339
446.744	0.38904916
446.954	0.38722762
447.165	0.38554012
447.375	0.38405815
447.586	0.3826151
447.796	0.38143467
448.006	0.37975298
448.217	0.37872416
448.427	0.37720308
448.638	0.37551878
448.848	0.3735331
449.058	0.37158094
449.269	0.36995201
449.479	0.36839529
449.689	0.36661477
449.9	0.36521928
450.11	0.3635523
450.32	0.3624697
450.531	0.36087602
450.741	0.35919621
450.951	0.35783804
451.161	0.35633951
451.372	0.35484101
451.582	0.35411717
451.792	0.35229209
452.002	0.35083772
452.212	0.34941001
452.422	0.34786357
452.633	0.34615627
452.843	0.34481182
453.053	0.34266428
453.263	0.34127432
453.473	0.34001831
453.683	0.33869003
453.893	0.33703368
454.103	0.33596273
454.313	0.33449424
454.523	0.33293785
454.733	0.3317754
454.943	0.33047566
455.153	0.32915391
455.363	0.32791369
455.573	0.32650469
455.783	0.32510136
455.993	0.32387294
456.203	0.32255299
456.413	0.32115467
456.623	0.31978978
456.833	0.31881713
457.042	0.31743246
457.252	0.31612548
457.462	0.31471723
457.672	0.31345035
457.882	0.31214156
458.091	0.31073419
458.301	0.30896158
458.511	0.30734782
458.721	0.30607919
458.931	0.30465066
459.14	0.30321938
459.35	0.30212199
459.56	0.30092583
459.769	0.2999632
459.979	0.29866304
460.189	0.29733133
460.398	0.29627839
460.608	0.29516001
460.817	0.29376813
461.027	0.29257331
461.237	0.29118321
461.446	0.29003573
461.656	0.28895963
461.865	0.28776974
462.075	0.28647394
462.284	0.28533859
462.494	0.28407051
462.703	0.28275374
462.913	0.28176488
463.122	0.28042344
463.332	0.2790819
463.541	0.27800718
463.751	0.27676035
463.96	0.27568296
464.169	0.2745971
464.379	0.27359318
464.588	0.27251414
464.797	0.27147886
465.007	0.2703091
465.216	0.26923334
465.425	0.2681555
465.635	0.26719961
465.844	0.2659578
466.053	0.26486025
466.263	0.26386915
466.472	0.26282349
466.681	0.26183727
466.89	0.2607919
467.099	0.25978056
467.309	0.25893112
467.518	0.25804061
467.727	0.25706812
467.936	0.25608679
468.145	0.25510765
468.354	0.25428212
468.563	0.2532396
468.772	0.25218531
468.982	0.25115366
469.191	0.25033652
469.4	0.24928498
469.609	0.24834141
469.818	0.24742448
470.027	0.2464068
470.236	0.24539034
470.445	0.24441803
470.654	0.24321239
470.863	0.24222694
471.072	0.24117852
471.28	0.23996487
471.489	0.23921846
471.698	0.23818148
471.907	0.23734626
472.116	0.23659079
472.325	0.23569245
472.534	0.23495229
472.743	0.23406749
472.951	0.23335519
473.16	0.23270093
473.369	0.23184819
473.578	0.23092634
473.786	0.2301914
473.995	0.22928189
474.204	0.22854054
474.413	0.22738868
474.621	0.22649781
474.83	0.22572345
475.039	0.22491514
475.247	0.22419903
475.456	0.22354945
475.665	0.22267531
475.873	0.22193405
476.082	0.22108781
476.291	0.22032712
476.499	0.21960808
476.708	0.21865712
476.916	0.21774866
477.125	0.2170895
477.333	0.21632496
477.542	0.2155385
477.75	0.21474265
477.959	0.2139943
478.167	0.21327124
478.376	0.21241035
478.584	0.21162497
478.793	0.2108968
479.001	0.21027283
479.209	0.20945498
479.418	0.20876141
479.626	0.20803963
479.834	0.2074065
480.043	0.20680938
480.251	0.20614056
480.459	0.2054685
480.668	0.20488571
480.876	0.20420859
481.084	0.20364272
481.293	0.20301644
481.501	0.20227118
481.709	0.20176496
481.917	0.20111278
482.125	0.20057115
482.334	0.19994343
482.542	0.19929669
482.75	0.19873697
482.958	0.19828063
483.166	0.1975794
483.374	0.19702162
483.583	0.19635909
483.791	0.19584784
483.999	0.19520861
484.207	0.19463021
484.415	0.19393792
484.623	0.19341411
484.831	0.19287482
485.039	0.19242742
485.247	0.19180814
485.455	0.19131477
485.663	0.19080222
485.871	0.19024489
486.079	0.18962248
486.287	0.18902296
486.495	0.18842871
486.702	0.18788129
486.91	0.18735249
487.118	0.18671139
487.326	0.18615493
487.534	0.18563023
487.742	0.18510932
487.95	0.18460006
488.157	0.1841615
488.365	0.18368319
488.573	0.18329062
488.781	0.18288552
488.988	0.18248603
489.196	0.18205224
489.404	0.1815964
489.612	0.18109287
489.819	0.18064743
490.027	0.18019996
490.235	0.17979762
490.442	0.17935951
490.65	0.17893593
490.857	0.17852915
491.065	0.1781537
491.273	0.17778919
491.48	0.17739142
491.688	0.17688972
491.895	0.17651459
492.103	0.17612803
492.31	0.17573738
492.518	0.17536135
492.725	0.17494668
492.933	0.17450443
493.14	0.17409598
493.348	0.17368831
493.555	0.17323561
493.763	0.1728126
493.97	0.17239063
494.177	0.17197845
494.385	0.17162188
494.592	0.17124775
494.8	0.17086738
495.007	0.17054374
495.214	0.17028817
495.422	0.16994793
495.629	0.16961376
495.836	0.16932476
496.043	0.16908701
496.251	0.16878009
496.458	0.16846732
496.665	0.16805946
496.872	0.16768808
497.08	0.16744603
497.287	0.16703934
497.494	0.16678592
497.701	0.16647464
497.908	0.1661834
498.115	0.16590543
498.322	0.16565365
498.53	0.16529837
498.737	0.16506182
498.944	0.16467204
499.151	0.16443091
499.358	0.16417258
499.565	0.16390072
499.772	0.16366747
499.979	0.16344856
500.186	0.16325608
500.393	0.16303281
500.6	0.16273583
500.807	0.16253528
501.014	0.16239779
501.221	0.16216925
501.427	0.16192962
501.634	0.16171092
501.841	0.16146207
502.048	0.16124912
502.255	0.16100545
502.462	0.16076104
502.669	0.1605557
502.875	0.16034191
503.082	0.16012583
503.289	0.1599629
503.496	0.15974737
503.702	0.15954274
503.909	0.159335
504.116	0.15913609
504.323	0.15896864
504.529	0.15878782
504.736	0.15864469
504.943	0.15854742
505.149	0.1583971
505.356	0.15828639
505.563	0.15808838
505.769	0.15792009
505.976	0.15776131
506.182	0.15760885
506.389	0.15741984
506.595	0.15730341
506.802	0.1570958
507.008	0.15701135
507.215	0.15692432
507.421	0.15683216
507.628	0.15670061
507.834	0.15653767
508.041	0.15641987
508.247	0.15631499
508.454	0.15617158
508.66	0.15601044
508.866	0.15583148
509.073	0.15573272
509.279	0.15562919
509.486	0.15552549
509.692	0.15545442
509.898	0.15536956
510.105	0.15526929
510.311	0.15522571
510.517	0.15509256
510.723	0.15504459
510.93	0.15491434
511.136	0.15487925
511.342	0.15484885
511.548	0.15481876
511.754	0.15474991
511.961	0.15475162
512.167	0.15463643
512.373	0.15458388
512.579	0.15447309
512.785	0.15438673
512.991	0.15429818
513.197	0.15427155
513.404	0.15421421
513.61	0.15423766
513.816	0.15420156
514.022	0.15420343
514.228	0.15415742
514.434	0.15414951
514.64	0.15407876
514.846	0.15410695
515.052	0.15407814
515.258	0.15410551
515.464	0.15405419
515.669	0.15403879
515.875	0.15400781
516.081	0.15405738
516.287	0.15396894
516.493	0.15393175
516.699	0.15385727
516.905	0.15382412
517.111	0.15381568
517.316	0.15387219
517.522	0.15387249
517.728	0.15395457
517.934	0.15398799
518.139	0.15403262
518.345	0.15404214
518.551	0.15411367
518.757	0.15411552
518.962	0.15409229
519.168	0.15403509
519.374	0.15405091
519.579	0.15407589
519.785	0.15412098
519.991	0.15407504
520.196	0.15405943
520.402	0.15406556
520.607	0.15413032
520.813	0.15421471
521.018	0.15428475
521.224	0.15429067
521.429	0.1543591
521.635	0.15441381
521.84	0.15443825
522.046	0.15448116
522.251	0.15446767
522.457	0.15444814
522.662	0.15455116
522.868	0.15464958
523.073	0.15470271
523.279	0.15480229
523.484	0.1548226
523.689	0.15486597
523.895	0.15492308
524.1	0.15495073
524.305	0.15495576
524.511	0.1550549
524.716	0.15513505
524.921	0.15518277
525.126	0.15525939
525.332	0.15536618
525.537	0.15542266
525.742	0.155528
525.947	0.15564303
526.153	0.15573752
526.358	0.15588651
526.563	0.15599068
526.768	0.15606935
526.973	0.15619079
527.178	0.15620976
527.383	0.15624085
527.588	0.15626534
527.794	0.15635095
527.999	0.15650155
528.204	0.15663862
528.409	0.15670023
528.614	0.15689018
528.819	0.15700909
529.024	0.15712114
529.229	0.15717678
529.434	0.15721736
529.639	0.15728124
529.843	0.1574009
530.048	0.15744875
530.253	0.15748795
530.458	0.1576639
530.663	0.15779522
530.868	0.15792862
531.073	0.15805027
531.278	0.15815892
531.482	0.15831421
531.687	0.15845819
531.892	0.15850572
532.097	0.15860743
532.302	0.15867046
532.506	0.15876305
532.711	0.15889698
532.916	0.1589878
533.12	0.15910893
533.325	0.15923756
533.53	0.15938482
533.734	0.15959783
533.939	0.15973323
534.144	0.15985033
534.348	0.1599669
534.553	0.16005744
534.757	0.1602117
534.962	0.16031522
535.167	0.16043754
535.371	0.16056426
535.576	0.1606639
535.78	0.16084187
535.985	0.16100776
536.189	0.16112465
536.394	0.16131476
536.598	0.16138585
536.803	0.16152474
537.007	0.16171308
537.211	0.16182855
537.416	0.16196991
537.62	0.16211407
537.825	0.16223132
538.029	0.16245531
538.233	0.16256524
538.438	0.16269903
538.642	0.16281267
538.846	0.16296019
539.05	0.16310691
539.255	0.16319002
539.459	0.16327127
539.663	0.16346806
539.867	0.16361049
540.072	0.16373049
540.276	0.16390417
540.48	0.16404005
540.684	0.16423379
540.888	0.16442232
541.092	0.16452274
541.297	0.16466109
541.501	0.16481504
541.705	0.1648584
541.909	0.16495884
542.113	0.16507052
542.317	0.16515831
542.521	0.16530853
542.725	0.16545189
542.929	0.1656474
543.133	0.16588845
543.337	0.16608397
543.541	0.16622349
543.745	0.16634867
543.949	0.16650823
544.153	0.1666185
544.357	0.16669655
544.56	0.16677734
544.764	0.16691082
544.968	0.16707277
545.172	0.16718436
545.376	0.16730705
545.58	0.16745591
545.783	0.167608
545.987	0.16774817
546.191	0.1678657
546.395	0.16801309
546.598	0.16822205
546.802	0.16840568
547.006	0.16854362
547.21	0.16871468
547.413	0.16894078
547.617	0.16908503
547.821	0.16925414
548.024	0.16941839
548.228	0.16953131
548.431	0.16970325
548.635	0.16981813
548.839	0.16988477
549.042	0.17009488
549.246	0.17022515
549.449	0.17039999
549.653	0.17058172
549.856	0.17069922
550.06	0.17084857
550.263	0.1710517
550.467	0.17115294
550.67	0.17128151
550.874	0.17135148
551.077	0.17143214
551.28	0.17156557
551.484	0.17171516
551.687	0.17177988
551.891	0.17192644
552.094	0.17203794
552.297	0.17217847
552.501	0.17234793
552.704	0.17245975
552.907	0.17256318
553.11	0.17273064
553.314	0.17288462
553.517	0.17301942
553.72	0.17318924
553.923	0.17333857
554.127	0.17349936
554.33	0.17361257
554.533	0.17370152
554.736	0.17372512
554.939	0.17381259
555.142	0.17393553
555.345	0.1739816
555.549	0.17410747
555.752	0.17421655
555.955	0.17436288
556.158	0.17451113
556.361	0.17467341
556.564	0.17473519
556.767	0.17486907
556.97	0.17504523
557.173	0.17517487
557.376	0.17529638
557.579	0.17543564
557.782	0.17555731
557.984	0.1756591
558.187	0.17584409
558.39	0.17586948
558.593	0.17603528
558.796	0.17609322
558.999	0.1761747
559.202	0.17630263
559.404	0.17639373
559.607	0.17641553
559.81	0.17655554
560.013	0.17661471
560.216	0.17673593
560.418	0.17683259
560.621	0.17690922
560.824	0.17707679
561.026	0.1772263
561.229	0.17724868
561.432	0.17739489
561.634	0.17749868
561.837	0.17763481
562.04	0.17770775
562.242	0.17777189
562.445	0.17778956
562.647	0.17790079
562.85	0.17792057
563.053	0.17799953
563.255	0.17803836
563.458	0.17813047
563.66	0.17819104
563.863	0.17831165
