Data from 0_1_mm_pl_0pc_Absorbance__0__19-04-45-124.txt Node

Date: Wed Mar 01 19:04:45 CET 2023
User: Ange
Spectrometer: FLMT08341
Trigger mode: 0
Integration Time (sec): 1.000000E-2
Scans to average: 400
Electric dark correction enabled: true
Nonlinearity correction enabled: false
Boxcar width: 3
XAxis mode: Wavelengths
Number of Pixels in Spectrum: 3648
>>>>>Begin Spectral Data<<<<<
345.271	-0.03716692
345.487	-0.03596708
345.704	-0.0357499
345.921	-0.0300288
346.137	-0.03266621
346.354	-0.01000949
346.571	-0.00134613
346.787	-0.0826581
347.004	0.07366284
347.22	-0.05413792
347.437	0.00986708
347.653	0.06323227
347.87	0.07377871
348.086	-0.29922715
348.303	-0.21580618
348.519	0.05443672
348.736	0.03571257
348.952	0.04352688
349.169	0.04613572
349.385	0.04286862
349.601	0.04675641
349.818	0.04690233
350.034	0.04770841
350.251	0.04778331
350.467	0.04694138
350.683	0.04731229
350.9	0.05024808
351.116	0.04957235
351.332	0.05004841
351.549	0.05281065
351.765	0.05565888
351.981	0.05801755
352.197	0.05951209
352.414	0.06003423
352.63	0.06162854
352.846	0.06128763
353.062	0.05876618
353.278	0.05897143
353.495	0.05855071
353.711	0.06054904
353.927	0.06151611
354.143	0.06279513
354.359	0.06342596
354.575	0.06413155
354.792	0.0645803
355.008	0.06425771
355.224	0.06260295
355.44	0.06143464
355.656	0.06052607
355.872	0.06165841
356.088	0.06395688
356.304	0.06484245
356.52	0.06446758
356.736	0.06648126
356.952	0.06768791
357.168	0.06897618
357.384	0.07023586
357.6	0.06869709
357.816	0.06878941
358.032	0.07128123
358.248	0.07144166
358.464	0.07127364
358.679	0.07194507
358.895	0.07209542
359.111	0.07240579
359.327	0.07186702
359.543	0.07343837
359.759	0.07474672
359.974	0.07496411
360.19	0.07417347
360.406	0.07366363
360.622	0.07512036
360.838	0.07530779
361.053	0.07448857
361.269	0.07489924
361.485	0.07661219
361.701	0.07830897
361.916	0.07925481
362.132	0.07936338
362.348	0.0803417
362.563	0.08058436
362.779	0.07956887
362.995	0.08034377
363.21	0.0807067
363.426	0.08062848
363.641	0.08104535
363.857	0.0823218
364.073	0.08284337
364.288	0.08343802
364.504	0.08357664
364.719	0.08271833
364.935	0.08307779
365.15	0.08352599
365.366	0.08477649
365.581	0.0861383
365.797	0.08674727
366.012	0.08665499
366.228	0.08794647
366.443	0.08963146
366.658	0.09090515
366.874	0.089824
367.089	0.08958893
367.305	0.08929563
367.52	0.09067377
367.735	0.09002252
367.951	0.08912214
368.166	0.08940447
368.381	0.09122323
368.597	0.09129478
368.812	0.09239054
369.027	0.09260863
369.243	0.09377866
369.458	0.09577218
369.673	0.09553504
369.888	0.0946138
370.104	0.09475477
370.319	0.09604834
370.534	0.09661169
370.749	0.09697264
370.964	0.09744726
371.179	0.09850178
371.395	0.09887845
371.61	0.09971094
371.825	0.09853734
372.04	0.09852255
372.255	0.09866288
372.47	0.09821391
372.685	0.09763388
372.9	0.09785453
373.115	0.09809361
373.33	0.09932001
373.545	0.09942784
373.76	0.09996771
373.975	0.099487
374.19	0.09974194
374.405	0.10035742
374.62	0.10104288
374.835	0.10192684
375.05	0.10232511
375.265	0.10282681
375.48	0.10349129
375.695	0.10418285
375.91	0.10439266
376.125	0.10440992
376.339	0.10404624
376.554	0.10473515
376.769	0.10463521
376.984	0.10545001
377.199	0.10590883
377.414	0.10579713
377.628	0.10606905
377.843	0.10646525
378.058	0.10739056
378.273	0.10827561
378.487	0.10839002
378.702	0.10970323
378.917	0.11061993
379.131	0.11175901
379.346	0.111462
379.561	0.10982464
379.775	0.10936627
379.99	0.10968917
380.205	0.1091936
380.419	0.10973796
380.634	0.10888278
380.848	0.110438
381.063	0.11200097
381.278	0.11323692
381.492	0.11307661
381.707	0.11359604
381.921	0.11339767
382.136	0.11511538
382.35	0.114456
382.565	0.11427629
382.779	0.1150327
382.994	0.11662339
383.208	0.11696443
383.422	0.11689804
383.637	0.11674602
383.851	0.11772287
384.066	0.11844038
384.28	0.11831159
384.494	0.11862443
384.709	0.11906662
384.923	0.11988846
385.137	0.1194737
385.352	0.11975631
385.566	0.12047841
385.78	0.12108039
385.995	0.12052883
386.209	0.12070724
386.423	0.12168407
386.637	0.12251097
386.852	0.12278101
387.066	0.12272073
387.28	0.12237278
387.494	0.1240907
387.708	0.12445353
387.923	0.1238843
388.137	0.12434812
388.351	0.12515674
388.565	0.12587596
388.779	0.12676327
388.993	0.12673525
389.207	0.12672616
389.421	0.12765334
389.635	0.12796119
389.85	0.12783068
390.064	0.1279255
390.278	0.1283209
390.492	0.1284296
390.706	0.12951848
390.92	0.12989379
391.134	0.13010823
391.348	0.13109892
391.561	0.13122562
391.775	0.13111624
391.989	0.13070196
392.203	0.13116828
392.417	0.13195941
392.631	0.13258021
392.845	0.13236745
393.059	0.13307805
393.273	0.13319834
393.486	0.13359199
393.7	0.13331262
393.914	0.13370894
394.128	0.13358498
394.342	0.13372361
394.555	0.13390969
394.769	0.13414038
394.983	0.13438183
395.197	0.13429968
395.41	0.13416835
395.624	0.13459823
395.838	0.13450304
396.051	0.13511278
396.265	0.13529258
396.479	0.13612234
396.692	0.13679329
396.906	0.13686152
397.12	0.13676773
397.333	0.13758165
397.547	0.13718717
397.76	0.1375642
397.974	0.13746082
398.187	0.13760372
398.401	0.13834336
398.614	0.13873586
398.828	0.13865034
399.041	0.13862956
399.255	0.1392111
399.468	0.13928366
399.682	0.13948615
399.895	0.13922962
400.109	0.13915933
400.322	0.13910485
400.536	0.13928496
400.749	0.13938098
400.962	0.1400106
401.176	0.14015399
401.389	0.14010496
401.602	0.13967456
401.816	0.14016412
402.029	0.14063521
402.242	0.14069242
402.456	0.14008281
402.669	0.1396318
402.882	0.13946009
403.095	0.14038327
403.309	0.1405097
403.522	0.14047652
403.735	0.14042598
403.948	0.14082284
404.161	0.14200077
404.375	0.14198051
404.588	0.14225268
404.801	0.14201054
405.014	0.14191728
405.227	0.1425121
405.44	0.14271356
405.653	0.14276378
405.866	0.14295785
406.079	0.1428345
406.293	0.14325925
406.506	0.14339658
406.719	0.1432053
406.932	0.14310398
407.145	0.14219992
407.358	0.14272321
407.571	0.14254926
407.784	0.14218867
407.996	0.14215717
408.209	0.14150512
408.422	0.14124115
408.635	0.14180416
408.848	0.14163659
409.061	0.14128479
409.274	0.14118997
409.487	0.14099554
409.7	0.14133293
409.912	0.14137039
410.125	0.14120387
410.338	0.14109535
410.551	0.14123252
410.764	0.14134673
410.976	0.14123566
411.189	0.14103849
411.402	0.14070167
411.615	0.14047379
411.827	0.14045181
412.04	0.14034828
412.253	0.14010952
412.465	0.14022526
412.678	0.14002048
412.891	0.14009131
413.103	0.13943484
413.316	0.1392484
413.529	0.13944756
413.741	0.1395939
413.954	0.13941711
414.166	0.13949277
414.379	0.13940806
414.591	0.13979787
414.804	0.1393794
415.016	0.13885769
415.229	0.13828161
415.441	0.1377175
415.654	0.13743255
415.866	0.13755465
416.079	0.13733065
416.291	0.13710269
416.504	0.13721094
416.716	0.13712826
416.928	0.13725749
417.141	0.13685334
417.353	0.13618564
417.566	0.13548145
417.778	0.13515633
417.99	0.13447068
418.203	0.13408959
418.415	0.13363737
418.627	0.1336049
418.839	0.13325565
419.052	0.13363153
419.264	0.13346712
419.476	0.13349363
419.688	0.13341207
419.901	0.13327905
420.113	0.13277738
420.325	0.1326177
420.537	0.13199258
420.749	0.13210353
420.961	0.13189831
421.174	0.13158687
421.386	0.1311862
421.598	0.13094521
421.81	0.13084236
422.022	0.13035353
422.234	0.12960282
422.446	0.12901871
422.658	0.12872003
422.87	0.12847287
423.082	0.12799748
423.294	0.12755642
423.506	0.12757394
423.718	0.12740143
423.93	0.12701065
424.142	0.12644031
424.354	0.12569354
424.566	0.12545089
424.778	0.124901
424.99	0.12465544
425.202	0.12408779
425.414	0.12394952
425.625	0.12360394
425.837	0.12326697
426.049	0.12276389
426.261	0.12255177
426.473	0.12152519
426.684	0.12096049
426.896	0.12056746
427.108	0.12014347
427.32	0.1200895
427.531	0.11976843
427.743	0.11927697
427.955	0.11915386
428.167	0.11883777
428.378	0.11814614
428.59	0.11784163
428.802	0.1173044
429.013	0.11656518
429.225	0.1159696
429.436	0.11541872
429.648	0.11501914
429.86	0.11483355
430.071	0.11418328
430.283	0.11363571
430.494	0.11337709
430.706	0.11283483
430.917	0.11251724
431.129	0.1119732
431.34	0.11128401
431.552	0.11080077
431.763	0.11017991
431.975	0.10988403
432.186	0.10937194
432.398	0.10883213
432.609	0.10827599
432.821	0.10775854
433.032	0.10734687
433.243	0.10684744
433.455	0.10621485
433.666	0.10592757
433.877	0.10571858
434.089	0.10508672
434.3	0.10463244
434.511	0.10394034
434.723	0.1035176
434.934	0.10302118
435.145	0.10242254
435.356	0.1015384
435.568	0.1012637
435.779	0.10059423
435.99	0.10004325
436.201	0.09947028
436.412	0.09888525
436.624	0.09840815
436.835	0.09806086
437.046	0.09765287
437.257	0.09733114
437.468	0.09714252
437.679	0.09689788
437.89	0.09660954
438.101	0.0963814
438.312	0.09600406
438.523	0.09541373
438.734	0.09502391
438.945	0.0946184
439.156	0.09393922
439.367	0.09340515
439.578	0.09268026
439.789	0.09202312
440	0.09176311
440.211	0.09115616
440.422	0.09048907
440.633	0.09014081
440.844	0.08943009
441.055	0.08878121
441.266	0.088331
441.477	0.08773498
441.687	0.08708309
441.898	0.08652727
442.109	0.08596519
442.32	0.08543853
442.531	0.08497227
442.741	0.08413625
442.952	0.08334182
443.163	0.08272385
443.374	0.08204897
443.584	0.08146452
443.795	0.08091133
444.006	0.08023269
444.216	0.07979034
444.427	0.07920944
444.638	0.07868812
444.848	0.07821625
445.059	0.07747166
445.27	0.07697026
445.48	0.0764635
445.691	0.07590698
445.901	0.07549068
446.112	0.07515583
446.323	0.07454819
446.533	0.07413969
446.744	0.07352527
446.954	0.07307175
447.165	0.07243892
447.375	0.07189647
447.586	0.07130917
447.796	0.07079342
448.006	0.07013137
448.217	0.06968771
448.427	0.06920327
448.638	0.06889562
448.848	0.06825575
449.058	0.06764163
449.269	0.06725731
449.479	0.06684641
449.689	0.06621538
449.9	0.06564728
450.11	0.06492485
450.32	0.06443051
450.531	0.06388161
450.741	0.06342871
450.951	0.06285394
451.161	0.06237528
451.372	0.06190949
451.582	0.06161544
451.792	0.06109535
452.002	0.06074716
452.212	0.06002718
452.422	0.05967596
452.633	0.05917976
452.843	0.058672
453.053	0.05800395
453.263	0.05761434
453.473	0.05697047
453.683	0.05663618
453.893	0.05613911
454.103	0.05580033
454.313	0.05532402
454.523	0.05498817
454.733	0.05463969
454.943	0.05437038
455.153	0.05393712
455.363	0.05344694
455.573	0.05304975
455.783	0.05258761
455.993	0.05215798
456.203	0.05158778
456.413	0.05109759
456.623	0.05068046
456.833	0.05023905
457.042	0.04974539
457.252	0.04934979
457.462	0.04889626
457.672	0.04854258
457.882	0.04816198
458.091	0.04775142
458.301	0.0474212
458.511	0.04704492
458.721	0.04670083
458.931	0.04625277
459.14	0.04592717
459.35	0.04558121
459.56	0.04534898
459.769	0.04498645
459.979	0.04458474
460.189	0.04427753
460.398	0.04401528
460.608	0.04359899
460.817	0.04326926
461.027	0.04266368
461.237	0.04222853
461.446	0.04187232
461.656	0.04146868
461.865	0.04108036
462.075	0.04069347
462.284	0.04028312
462.494	0.04002213
462.703	0.03960854
462.913	0.0392588
463.122	0.03892967
463.332	0.03864996
463.541	0.03835319
463.751	0.03802213
463.96	0.03780683
464.169	0.03771629
464.379	0.03739671
464.588	0.03713932
464.797	0.03681265
465.007	0.03663929
465.216	0.03641683
465.425	0.03602047
465.635	0.0355111
465.844	0.03525521
466.053	0.0349401
466.263	0.03464654
466.472	0.03428531
466.681	0.03401713
466.89	0.03371498
467.099	0.03345148
467.309	0.03309933
467.518	0.0328152
467.727	0.03261998
467.936	0.03236749
468.145	0.03203645
468.354	0.03180905
468.563	0.0317131
468.772	0.03155424
468.982	0.03131196
469.191	0.03106867
469.4	0.03077856
469.609	0.03051866
469.818	0.0302904
470.027	0.03004579
470.236	0.02987534
470.445	0.02967894
470.654	0.02937975
470.863	0.02914005
471.072	0.02901714
471.28	0.028757
471.489	0.02855903
471.698	0.02824813
471.907	0.02791071
472.116	0.02782327
472.325	0.02764934
472.534	0.02737702
472.743	0.0272511
472.951	0.02710615
473.16	0.02703811
473.369	0.02703977
473.578	0.02680946
473.786	0.0266359
473.995	0.02654973
474.204	0.02636878
474.413	0.02612622
474.621	0.02588813
474.83	0.02568756
475.039	0.02561763
475.247	0.02550532
475.456	0.02529923
475.665	0.02520095
475.873	0.0249899
476.082	0.02488771
476.291	0.02482208
476.499	0.0246406
476.708	0.02451325
476.916	0.02438892
477.125	0.02427042
477.333	0.02424009
477.542	0.02408962
477.75	0.02387835
477.959	0.02375831
478.167	0.02367537
478.376	0.02351742
478.584	0.02337828
478.793	0.02323051
479.001	0.02310994
479.209	0.02298596
479.418	0.02284466
479.626	0.02272117
479.834	0.02261118
480.043	0.02250164
480.251	0.02243693
480.459	0.02238557
480.668	0.02233139
480.876	0.02221972
481.084	0.02211845
481.293	0.02199392
481.501	0.02182182
481.709	0.02167919
481.917	0.02148293
482.125	0.0213906
482.334	0.02134791
482.542	0.02125071
482.75	0.02124759
482.958	0.02125039
483.166	0.02115106
483.374	0.02113372
483.583	0.02111453
483.791	0.02103169
483.999	0.02096954
484.207	0.02091613
484.415	0.02087056
484.623	0.02090505
484.831	0.02091206
485.039	0.02084247
485.247	0.02077558
485.455	0.02077436
485.663	0.02071963
485.871	0.02062508
486.079	0.02053732
486.287	0.02046945
486.495	0.02040803
486.702	0.02038112
486.91	0.02033006
487.118	0.02026702
487.326	0.02024251
487.534	0.02016596
487.742	0.02008586
487.95	0.02001434
488.157	0.02005295
488.365	0.02005925
488.573	0.02007179
488.781	0.02006431
488.988	0.02006544
489.196	0.02008666
489.404	0.02010007
489.612	0.020023
489.819	0.01998064
490.027	0.01996301
490.235	0.01997055
490.442	0.0199921
490.65	0.01998913
490.857	0.02002356
491.065	0.02000224
491.273	0.01995453
491.48	0.01992554
491.688	0.0199296
491.895	0.01996199
492.103	0.01999037
492.31	0.01996173
492.518	0.01997564
492.725	0.02001396
492.933	0.02010118
493.14	0.02010465
493.348	0.02007735
493.555	0.01999791
493.763	0.02006564
493.97	0.02010223
494.177	0.02013267
494.385	0.02008165
494.592	0.02008876
494.8	0.02017149
495.007	0.02025755
495.214	0.02026603
495.422	0.0202969
495.629	0.02030759
495.836	0.02037555
496.043	0.02038133
496.251	0.02033949
496.458	0.0203301
496.665	0.02030728
496.872	0.02031374
497.08	0.02036859
497.287	0.02039915
497.494	0.02047177
497.701	0.02055083
497.908	0.02062747
498.115	0.02067252
498.322	0.02072957
498.53	0.02075704
498.737	0.02078106
498.944	0.0207807
499.151	0.02081348
499.358	0.02087937
499.565	0.02090592
499.772	0.02096165
499.979	0.02100119
500.186	0.02104109
500.393	0.02114157
500.6	0.02119937
500.807	0.02120611
501.014	0.02135641
501.221	0.0213908
501.427	0.02141984
501.634	0.02153567
501.841	0.02157341
502.048	0.02166792
502.255	0.02172537
502.462	0.02172642
502.669	0.0218096
502.875	0.02191484
503.082	0.0219211
503.289	0.0219989
503.496	0.0220892
503.702	0.02215396
503.909	0.02228503
504.116	0.02237924
504.323	0.02240679
504.529	0.02250479
504.736	0.0225703
504.943	0.02261774
505.149	0.02272932
505.356	0.02276714
505.563	0.02278176
505.769	0.02286732
505.976	0.02295158
506.182	0.02303188
506.389	0.02306921
506.595	0.02313725
506.802	0.0231895
507.008	0.02324142
507.215	0.02332044
507.421	0.0233969
507.628	0.02351049
507.834	0.02362285
508.041	0.0237044
508.247	0.0237739
508.454	0.02392201
508.66	0.02404264
508.866	0.02415442
509.073	0.02420521
509.279	0.02426495
509.486	0.02435187
509.692	0.02444849
509.898	0.02457228
510.105	0.02465461
510.311	0.02476142
510.517	0.02487485
510.723	0.0250254
510.93	0.02514045
511.136	0.02530725
511.342	0.0253954
511.548	0.02550934
511.754	0.02563006
511.961	0.02573052
512.167	0.02580341
512.373	0.02590912
512.579	0.0259728
512.785	0.02607047
512.991	0.02619123
513.197	0.02623893
513.404	0.02633196
513.61	0.02646459
513.816	0.02658519
514.022	0.02669363
514.228	0.02679512
514.434	0.0268658
514.64	0.02696556
514.846	0.02712465
515.052	0.02721904
515.258	0.02728417
515.464	0.02735825
515.669	0.0274501
515.875	0.02758731
516.081	0.02773223
516.287	0.02779568
516.493	0.02790044
516.699	0.0280525
516.905	0.0282162
517.111	0.02836746
517.316	0.02847829
517.522	0.02856944
517.728	0.02872172
517.934	0.02878112
518.139	0.02890872
518.345	0.0289838
518.551	0.02914605
518.757	0.02925761
518.962	0.02936113
519.168	0.02953096
519.374	0.02966374
519.579	0.02977115
519.785	0.0299437
519.991	0.03004154
520.196	0.03017216
520.402	0.03032587
520.607	0.03040837
520.813	0.03054189
521.018	0.03066089
521.224	0.03077719
521.429	0.03087785
521.635	0.03104565
521.84	0.03118599
522.046	0.03129555
522.251	0.0315261
522.457	0.03168861
522.662	0.03182178
522.868	0.03195792
523.073	0.03209982
523.279	0.03227085
523.484	0.03244134
523.689	0.03255932
523.895	0.03269855
524.1	0.03281594
524.305	0.03294088
524.511	0.03300608
524.716	0.03317441
524.921	0.03330642
525.126	0.03342195
525.332	0.03357294
525.537	0.03376227
525.742	0.03391551
525.947	0.03407533
526.153	0.03415473
526.358	0.03430208
526.563	0.03444458
526.768	0.03458887
526.973	0.03476927
527.178	0.03497005
527.383	0.03515645
527.588	0.03531454
527.794	0.03542413
527.999	0.03557568
528.204	0.03572524
528.409	0.03585103
528.614	0.03597934
528.819	0.03613888
529.024	0.03629319
529.229	0.03645406
529.434	0.03662212
529.639	0.03676112
529.843	0.03688755
530.048	0.03703232
530.253	0.03719309
530.458	0.03738048
530.663	0.03763487
530.868	0.03780975
531.073	0.03799916
531.278	0.03812305
531.482	0.03831295
531.687	0.03848533
531.892	0.03866623
532.097	0.03872691
532.302	0.03889908
532.506	0.03904137
532.711	0.0392638
532.916	0.03941
533.12	0.03957925
533.325	0.03972438
533.53	0.03993796
533.734	0.04008303
533.939	0.04025711
534.144	0.04042114
534.348	0.0405967
534.553	0.04072419
534.757	0.04087648
534.962	0.04106681
535.167	0.04120776
535.371	0.04140002
535.576	0.04161359
535.78	0.04178021
535.985	0.04196264
536.189	0.0421317
536.394	0.04222581
536.598	0.04241145
536.803	0.04256343
537.007	0.0427099
537.211	0.04289582
537.416	0.04309199
537.62	0.04329835
537.825	0.04352366
538.029	0.04371709
538.233	0.04390263
538.438	0.04404991
538.642	0.04422099
538.846	0.04436675
539.05	0.04450641
539.255	0.04470509
539.459	0.04487237
539.663	0.04503759
539.867	0.04525046
540.072	0.04543675
540.276	0.04560525
540.48	0.04576523
540.684	0.04592448
540.888	0.04606166
541.092	0.04619281
541.297	0.04636593
541.501	0.04653716
541.705	0.04671751
541.909	0.04689947
542.113	0.04708314
542.317	0.04729836
542.521	0.04750651
542.725	0.0476871
542.929	0.04787045
543.133	0.04804887
543.337	0.04826999
543.541	0.04843833
543.745	0.04864338
543.949	0.04886393
544.153	0.0490482
544.357	0.04924401
544.56	0.04945218
544.764	0.04965049
544.968	0.04980376
545.172	0.04995359
545.376	0.05016485
545.58	0.05034539
545.783	0.05048359
545.987	0.05064506
546.191	0.05080008
546.395	0.0510603
546.598	0.05127665
546.802	0.05144045
547.006	0.05160772
547.21	0.05182731
547.413	0.05207475
547.617	0.05226429
547.821	0.05243816
548.024	0.05262298
548.228	0.05279935
548.431	0.05302606
548.635	0.05319444
548.839	0.05331145
549.042	0.05352446
549.246	0.05369419
549.449	0.05388415
549.653	0.05406343
549.856	0.05425545
550.06	0.05445873
550.263	0.05470965
550.467	0.05487294
550.67	0.05506453
550.874	0.05526576
551.077	0.05549715
551.28	0.05567392
551.484	0.05586496
551.687	0.05604529
551.891	0.0562753
552.094	0.05644547
552.297	0.05662947
552.501	0.05681772
552.704	0.0570477
552.907	0.05722654
553.11	0.05744707
553.314	0.05761583
553.517	0.05783572
553.72	0.05802925
553.923	0.05819742
554.127	0.05832436
554.33	0.0585046
554.533	0.05871203
554.736	0.05887792
554.939	0.05905774
555.142	0.05926586
555.345	0.05946179
555.549	0.05969259
555.752	0.05987341
555.955	0.06001965
556.158	0.06026231
556.361	0.06049536
556.564	0.06067623
556.767	0.06087955
556.97	0.06102226
557.173	0.0612049
557.376	0.06141891
557.579	0.06157131
557.782	0.06174532
557.984	0.06189699
558.187	0.06206244
558.39	0.06231808
558.593	0.06257008
558.796	0.06275491
558.999	0.06294998
559.202	0.06312609
559.404	0.06335877
559.607	0.06357676
559.81	0.06373957
560.013	0.06391946
560.216	0.06413537
560.418	0.06435061
560.621	0.06452102
560.824	0.06471824
561.026	0.06492853
561.229	0.06510906
561.432	0.06533548
561.634	0.06549406
561.837	0.06566513
562.04	0.06590781
562.242	0.06608976
562.445	0.06625878
562.647	0.06646014
562.85	0.06661692
563.053	0.06681338
563.255	0.06699556
563.458	0.0671623
563.66	0.06735509
563.863	0.06755104
