Data from 1_mm_pl_50pc_Absorbance__0__16-14-05-760.txt Node

Date: Wed Mar 08 16:14:05 CET 2023
User: Ange
Spectrometer: FLMT08341
Trigger mode: 0
Integration Time (sec): 1.000000E-2
Scans to average: 400
Electric dark correction enabled: true
Nonlinearity correction enabled: false
Boxcar width: 3
XAxis mode: Wavelengths
Number of Pixels in Spectrum: 3648
>>>>>Begin Spectral Data<<<<<
345.271	0.07311464
345.487	0.05670911
345.704	0.06185985
345.921	0.07102066
346.137	0.05360628
346.354	0.04508722
346.571	0.01609478
346.787	0.01147391
347.004	-0.00629547
347.22	0.09623607
347.437	0.23571186
347.653	0.24905685
347.87	-0.28186324
348.086	-0.07245193
348.303	-0.44733636
348.519	0.44997371
348.736	0.45592
348.952	0.45321217
349.169	0.46961965
349.385	0.49488238
349.601	0.48629096
349.818	0.47348861
350.034	0.46828985
350.251	0.46791505
350.467	0.4721952
350.683	0.45683117
350.9	0.45111436
351.116	0.44598899
351.332	0.44654311
351.549	0.46385319
351.765	0.47835406
351.981	0.48561202
352.197	0.50324647
352.414	0.52830922
352.63	0.54525252
352.846	0.56304418
353.062	0.54781132
353.278	0.5329773
353.495	0.54850485
353.711	0.54869117
353.927	0.55087523
354.143	0.5473178
354.359	0.5341056
354.575	0.53167403
354.792	0.54492012
355.008	0.52898944
355.224	0.5240359
355.44	0.51624004
355.656	0.51574068
355.872	0.52716307
356.088	0.56209337
356.304	0.56670365
356.52	0.57773872
356.736	0.5863403
356.952	0.59231825
357.168	0.59361392
357.384	0.60324185
357.6	0.58051329
357.816	0.58965925
358.032	0.59777239
358.248	0.61699588
358.464	0.61790847
358.679	0.62921523
358.895	0.62870715
359.111	0.64501062
359.327	0.63084805
359.543	0.6321231
359.759	0.63805204
359.974	0.63772091
360.19	0.6350655
360.406	0.63675635
360.622	0.63057918
360.838	0.6324044
361.053	0.63785879
361.269	0.63933595
361.485	0.64623327
361.701	0.652869
361.916	0.6438251
362.132	0.64298833
362.348	0.64896788
362.563	0.65352088
362.779	0.64851147
362.995	0.65439687
363.21	0.6652979
363.426	0.67304034
363.641	0.67720433
363.857	0.68515749
364.073	0.67780347
364.288	0.67163327
364.504	0.68291807
364.719	0.68194419
364.935	0.68125401
365.15	0.6853301
365.366	0.68886548
365.581	0.70370193
365.797	0.70998218
366.012	0.69951219
366.228	0.69231933
366.443	0.70930909
366.658	0.71067578
366.874	0.70349527
367.089	0.70908012
367.305	0.715988
367.52	0.72226836
367.735	0.72707928
367.951	0.71680607
368.166	0.72298969
368.381	0.73695827
368.597	0.73367801
368.812	0.74117005
369.027	0.74866099
369.243	0.75453357
369.458	0.77761623
369.673	0.78226307
369.888	0.78303144
370.104	0.77674076
370.319	0.77851732
370.534	0.77335991
370.749	0.77499444
370.964	0.77156108
371.179	0.77144679
371.395	0.76452641
371.61	0.77172894
371.825	0.76207706
372.04	0.76753352
372.255	0.76317326
372.47	0.75632148
372.685	0.74800992
372.9	0.75136833
373.115	0.74735836
373.33	0.75563925
373.545	0.75564691
373.76	0.7648032
373.975	0.7629598
374.19	0.76540216
374.405	0.7723823
374.62	0.79063997
374.835	0.80503735
375.05	0.80929281
375.265	0.81185622
375.48	0.81751366
375.695	0.839134
375.91	0.83478834
376.125	0.81972498
376.339	0.80169235
376.554	0.8028988
376.769	0.80427045
376.984	0.8069129
377.199	0.80733302
377.414	0.80874298
377.628	0.82279551
377.843	0.83662318
378.058	0.83876022
378.273	0.84649942
378.487	0.85272865
378.702	0.85472624
378.917	0.85966046
379.131	0.85222618
379.346	0.84360835
379.561	0.8412779
379.775	0.83591358
379.99	0.82801378
380.205	0.81998061
380.419	0.81309727
380.634	0.80426231
380.848	0.81244689
381.063	0.81600178
381.278	0.82601513
381.492	0.82525241
381.707	0.83760113
381.921	0.84154383
382.136	0.85991341
382.35	0.85391086
382.565	0.84925614
382.779	0.85067078
382.994	0.8579202
383.208	0.84733591
383.422	0.85796276
383.637	0.85572507
383.851	0.86817978
384.066	0.87895022
384.28	0.88094411
384.494	0.88374016
384.709	0.89217482
384.923	0.89425283
385.137	0.88788171
385.352	0.88838305
385.566	0.8951726
385.78	0.89250403
385.995	0.89025852
386.209	0.88556505
386.423	0.88862177
386.637	0.89652832
386.852	0.88895033
387.066	0.88418183
387.28	0.88064234
387.494	0.89019002
387.708	0.89700899
387.923	0.89802674
388.137	0.90532168
388.351	0.91302808
388.565	0.92283958
388.779	0.92830693
388.993	0.93926605
389.207	0.9436209
389.421	0.94780538
389.635	0.9404656
389.85	0.94202672
390.064	0.94118251
390.278	0.94561344
390.492	0.94312125
390.706	0.94591672
390.92	0.94633146
391.134	0.95759675
391.348	0.97430341
391.561	0.97231518
391.775	0.96828229
391.989	0.96121064
392.203	0.96556014
392.417	0.96986597
392.631	0.97685558
392.845	0.96610315
393.059	0.97501327
393.273	0.97679174
393.486	0.97417282
393.7	0.96720468
393.914	0.97300646
394.128	0.96982492
394.342	0.96728136
394.555	0.9569086
394.769	0.9592872
394.983	0.96689459
395.197	0.97466745
395.41	0.97115551
395.624	0.97642112
395.838	0.98002425
396.051	0.99821825
396.265	0.99716118
396.479	1.00157982
396.692	1.00423246
396.906	1.00219316
397.12	0.9973324
397.333	1.00578204
397.547	0.9979492
397.76	1.00655529
397.974	1.00882815
398.187	1.01058609
398.401	1.01825561
398.614	1.02244206
398.828	1.02141471
399.041	1.02572548
399.255	1.02388287
399.468	1.02208526
399.682	1.02293623
399.895	1.02534336
400.109	1.02413152
400.322	1.02125905
400.536	1.01319806
400.749	1.02357298
400.962	1.02783009
401.176	1.02331524
401.389	1.02073238
401.602	1.01269063
401.816	1.01845757
402.029	1.02925232
402.242	1.02319689
402.456	1.02063394
402.669	1.01801998
402.882	1.0107658
403.095	1.02491738
403.309	1.02465541
403.522	1.02523285
403.735	1.02348207
403.948	1.02505965
404.161	1.04380184
404.375	1.05178287
404.588	1.05191159
404.801	1.05376496
405.014	1.05061596
405.227	1.06104692
405.44	1.06562099
405.653	1.06366391
405.866	1.05859294
406.079	1.05543041
406.293	1.05432945
406.506	1.0567449
406.719	1.05317731
406.932	1.049762
407.145	1.04223283
407.358	1.05539445
407.571	1.05100273
407.784	1.05281772
407.996	1.05484698
408.209	1.04919421
408.422	1.04638928
408.635	1.05100452
408.848	1.04932256
409.061	1.04584377
409.274	1.04356057
409.487	1.04102875
409.7	1.04281238
409.912	1.047816
410.125	1.04721054
410.338	1.04497558
410.551	1.04813976
410.764	1.05066121
410.976	1.05112394
411.189	1.05295051
411.402	1.04878869
411.615	1.05074758
411.827	1.05062678
412.04	1.05290294
412.253	1.05069799
412.465	1.0469013
412.678	1.04373237
412.891	1.04906732
413.103	1.03886418
413.316	1.03521359
413.529	1.03856322
413.741	1.04112072
413.954	1.04589179
414.166	1.04734829
414.379	1.0438019
414.591	1.04991573
414.804	1.04875569
415.016	1.04561189
415.229	1.0419473
415.441	1.03572033
415.654	1.03878211
415.866	1.03933531
416.079	1.04049969
416.291	1.0396255
416.504	1.04316473
416.716	1.0449024
416.928	1.04891213
417.141	1.04222177
417.353	1.04316824
417.566	1.03562608
417.778	1.03689245
417.99	1.02767847
418.203	1.02263823
418.415	1.01965198
418.627	1.0216963
418.839	1.01896395
419.052	1.02665592
419.264	1.0249468
419.476	1.02780593
419.688	1.02988097
419.901	1.02874879
420.113	1.02591639
420.325	1.02264682
420.537	1.01501603
420.749	1.01606118
420.961	1.01617293
421.174	1.01361765
421.386	1.01104151
421.598	1.009535
421.81	1.0077275
422.022	1.00557652
422.234	1.0031485
422.446	0.99874324
422.658	0.99590287
422.87	0.99506669
423.082	0.99352461
423.294	0.99218081
423.506	0.99200467
423.718	0.98995646
423.93	0.98649488
424.142	0.9832281
424.354	0.97986885
424.566	0.97757712
424.778	0.97603111
424.99	0.97343844
425.202	0.96938214
425.414	0.9695221
425.625	0.97162914
425.837	0.96692778
426.049	0.96670122
426.261	0.96399269
426.473	0.96031578
426.684	0.95838949
426.896	0.95738322
427.108	0.95198223
427.32	0.95344651
427.531	0.94839805
427.743	0.94687884
427.955	0.94845949
428.167	0.94488583
428.378	0.94186303
428.59	0.94036226
428.802	0.93803609
429.013	0.93568849
429.225	0.93152074
429.436	0.9270822
429.648	0.92664858
429.86	0.92488374
430.071	0.92316262
430.283	0.92045251
430.494	0.91785199
430.706	0.91678644
430.917	0.91320389
431.129	0.91024733
431.34	0.90661826
431.552	0.90428086
431.763	0.90106931
431.975	0.90046357
432.186	0.89459999
432.398	0.89208619
432.609	0.88621946
432.821	0.88410904
433.032	0.88064859
433.243	0.87749166
433.455	0.87399425
433.666	0.87362907
433.877	0.87295934
434.089	0.87016578
434.3	0.86507791
434.511	0.86002564
434.723	0.8571147
434.934	0.85229759
435.145	0.84638232
435.356	0.8404136
435.568	0.83829248
435.779	0.83523522
435.99	0.83099517
436.201	0.82680266
436.412	0.82346936
436.624	0.82317548
436.835	0.82218028
437.046	0.82056681
437.257	0.81806378
437.468	0.81838638
437.679	0.81722701
437.89	0.81473934
438.101	0.81242269
438.312	0.80904432
438.523	0.80516992
438.734	0.80244984
438.945	0.79885851
439.156	0.7941588
439.367	0.79197608
439.578	0.78928363
439.789	0.78454547
440	0.7821147
440.211	0.77784455
440.422	0.77476195
440.633	0.77310952
440.844	0.76855443
441.055	0.76411117
441.266	0.76250198
441.477	0.75834769
441.687	0.7555919
441.898	0.75207784
442.109	0.74747216
442.32	0.74478761
442.531	0.74052441
442.741	0.73473907
442.952	0.73106966
443.163	0.72812384
443.374	0.72399511
443.584	0.72027879
443.795	0.71727155
444.006	0.71434657
444.216	0.71194322
444.427	0.70796304
444.638	0.70417039
444.848	0.7008698
445.059	0.69770832
445.27	0.69374269
445.48	0.68976064
445.691	0.68680815
445.901	0.68412653
446.112	0.68067869
446.323	0.67687672
446.533	0.67318539
446.744	0.66938462
446.954	0.66580333
447.165	0.66213972
447.375	0.6594098
447.586	0.65681404
447.796	0.65406879
448.006	0.65078076
448.217	0.64836268
448.427	0.64546885
448.638	0.64165872
448.848	0.63738928
449.058	0.63337429
449.269	0.62987141
449.479	0.62664575
449.689	0.62286487
449.9	0.61975474
450.11	0.61672788
450.32	0.61451342
450.531	0.61071579
450.741	0.6071941
450.951	0.60430752
451.161	0.60069504
451.372	0.59744045
451.582	0.59574125
451.792	0.59173084
452.002	0.58907074
452.212	0.58550047
452.422	0.58223498
452.633	0.57886255
452.843	0.57622777
453.053	0.57138957
453.263	0.56861487
453.473	0.56512908
453.683	0.56268153
453.893	0.55882574
454.103	0.55660383
454.313	0.55289204
454.523	0.54986933
454.733	0.54675631
454.943	0.54441356
455.153	0.54170133
455.363	0.5391975
455.573	0.53621083
455.783	0.53369286
455.993	0.53076837
456.203	0.52841361
456.413	0.52538722
456.623	0.52223559
456.833	0.51990246
457.042	0.51683596
457.252	0.51409176
457.462	0.51146025
457.672	0.50840947
457.882	0.50564408
458.091	0.50278632
458.301	0.49964769
458.511	0.49688513
458.721	0.4940608
458.931	0.49146357
459.14	0.48901025
459.35	0.4868499
459.56	0.48478529
459.769	0.48274352
459.979	0.48010923
460.189	0.477684
460.398	0.47520489
460.608	0.47282317
460.817	0.47031663
461.027	0.46773067
461.237	0.46516022
461.446	0.46305602
461.656	0.46123055
461.865	0.45882865
462.075	0.45645617
462.284	0.45425705
462.494	0.45209645
462.703	0.44954736
462.913	0.44750844
463.122	0.44493954
463.332	0.44278347
463.541	0.44105585
463.751	0.43900104
463.96	0.43687707
464.169	0.43530393
464.379	0.43358276
464.588	0.43174539
464.797	0.42987767
465.007	0.42782992
465.216	0.42585853
465.425	0.42424861
465.635	0.42238536
465.844	0.42052111
466.053	0.41869263
466.263	0.41722139
466.472	0.41547734
466.681	0.41375154
466.89	0.41174451
467.099	0.40985147
467.309	0.40801308
467.518	0.40652342
467.727	0.404483
467.936	0.40265262
468.145	0.40113547
468.354	0.39965104
468.563	0.39802831
468.772	0.39634555
468.982	0.39463342
469.191	0.39338975
469.4	0.39186034
469.609	0.39025668
469.818	0.38908549
470.027	0.387701
470.236	0.3863501
470.445	0.38509678
470.654	0.38360374
470.863	0.38218752
471.072	0.38096497
471.28	0.37928594
471.489	0.37814587
471.698	0.37683235
471.907	0.37562898
472.116	0.37457056
472.325	0.37351719
472.534	0.37252096
472.743	0.37144224
472.951	0.37058469
473.16	0.36987187
473.369	0.36885677
473.578	0.36798588
473.786	0.36728875
473.995	0.36614784
474.204	0.36544278
474.413	0.3643445
474.621	0.36335078
474.83	0.36263727
475.039	0.36175065
475.247	0.36091341
475.456	0.360332
475.665	0.35965518
475.873	0.35892432
476.082	0.35802565
476.291	0.35720187
476.499	0.35666581
476.708	0.35568858
476.916	0.35508607
477.125	0.35446915
477.333	0.35396786
477.542	0.35361898
477.75	0.35317473
477.959	0.35270801
478.167	0.35242204
478.376	0.35181322
478.584	0.35133478
478.793	0.35081344
479.001	0.3502984
479.209	0.34983537
479.418	0.34934365
479.626	0.34910401
479.834	0.34892871
480.043	0.34870076
480.251	0.34840002
480.459	0.34805617
480.668	0.34780608
480.876	0.34751076
481.084	0.34727493
481.293	0.34697725
481.501	0.34667971
481.709	0.34660389
481.917	0.34655924
482.125	0.34639349
482.334	0.34625878
482.542	0.34597784
482.75	0.34589051
482.958	0.34582976
483.166	0.34575511
483.374	0.34562416
483.583	0.34571532
483.791	0.34584702
483.999	0.34587532
484.207	0.34592219
484.415	0.34599083
484.623	0.3461052
484.831	0.34621583
485.039	0.34636123
485.247	0.34653244
485.455	0.34690653
485.663	0.34709636
485.871	0.34732629
486.079	0.34747326
486.287	0.34782884
486.495	0.34797273
486.702	0.34804865
486.91	0.34830328
487.118	0.34854902
487.326	0.34882218
487.534	0.34907166
487.742	0.34931418
487.95	0.34972879
488.157	0.35019842
488.365	0.35058194
488.573	0.35102622
488.781	0.35141754
488.988	0.35209834
489.196	0.35266664
489.404	0.35311591
489.612	0.35366906
489.819	0.3541978
490.027	0.35473253
490.235	0.35526345
490.442	0.35582857
490.65	0.35635032
490.857	0.35700688
491.065	0.35757874
491.273	0.358085
491.48	0.35878243
491.688	0.35937241
491.895	0.35992875
492.103	0.36051073
492.31	0.36115797
492.518	0.36186186
492.725	0.36276733
492.933	0.36350937
493.14	0.36433441
493.348	0.36512536
493.555	0.36595301
493.763	0.36677933
493.97	0.36754704
494.177	0.36828531
494.385	0.36904315
494.592	0.36989348
494.8	0.37067705
495.007	0.37162775
495.214	0.37258078
495.422	0.37365958
495.629	0.37455625
495.836	0.37550747
496.043	0.37659855
496.251	0.377706
496.458	0.37867584
496.665	0.37961644
496.872	0.38049189
497.08	0.38150407
497.287	0.3824726
497.494	0.3834733
497.701	0.38450761
497.908	0.3856541
498.115	0.3866919
498.322	0.38775529
498.53	0.38873902
498.737	0.38983794
498.944	0.39088774
499.151	0.39196842
499.358	0.39303724
499.565	0.3942338
499.772	0.39544313
499.979	0.39674048
500.186	0.39788889
500.393	0.39898653
500.6	0.40019574
500.807	0.40133084
501.014	0.40244554
501.221	0.40362463
501.427	0.40475643
501.634	0.40610855
501.841	0.40748078
502.048	0.40877724
502.255	0.40994841
502.462	0.41133696
502.669	0.4129013
502.875	0.41432499
503.082	0.41566906
503.289	0.4170115
503.496	0.41827635
503.702	0.41966954
503.909	0.42095941
504.116	0.42210481
504.323	0.42342531
504.529	0.42477412
504.736	0.42621714
504.943	0.42755815
505.149	0.42914782
505.356	0.43068288
505.563	0.43220603
505.769	0.4337025
505.976	0.43521174
506.182	0.43673551
506.389	0.43833148
506.595	0.43980971
506.802	0.44130756
507.008	0.44277473
507.215	0.44437354
507.421	0.44591293
507.628	0.44736714
507.834	0.44891444
508.041	0.45056871
508.247	0.45214089
508.454	0.4537528
508.66	0.45510581
508.866	0.45671294
509.073	0.45830243
509.279	0.45995521
509.486	0.46154636
509.692	0.46317128
509.898	0.46493583
510.105	0.46671269
510.311	0.4682599
510.517	0.46997342
510.723	0.4716086
510.93	0.47312157
511.136	0.47482086
511.342	0.47635354
511.548	0.47806574
511.754	0.47995633
511.961	0.48170445
512.167	0.48347037
512.373	0.4851715
512.579	0.48692653
512.785	0.48876575
512.991	0.49050027
513.197	0.49216088
513.404	0.49384159
513.61	0.49559034
513.816	0.49720387
514.022	0.49877353
514.228	0.50033856
514.434	0.50202693
514.64	0.50370616
514.846	0.50553519
515.052	0.50722255
515.258	0.50908503
515.464	0.51094375
515.669	0.51276783
515.875	0.51464448
516.081	0.51639559
516.287	0.51817764
516.493	0.52001981
516.699	0.52181842
516.905	0.52355644
517.111	0.52539201
517.316	0.5272025
517.522	0.52917739
517.728	0.53110707
517.934	0.53299622
518.139	0.53486481
518.345	0.53660475
518.551	0.53841792
518.757	0.54026197
518.962	0.54206846
519.168	0.54395607
519.374	0.54569002
519.579	0.54760767
519.785	0.54969012
519.991	0.55168747
520.196	0.55358661
520.402	0.55541447
520.607	0.55723855
520.813	0.55929497
521.018	0.56113676
521.224	0.56275577
521.429	0.56461427
521.635	0.56648052
521.84	0.5682678
522.046	0.57018199
522.251	0.57197399
522.457	0.57395641
522.662	0.57618744
522.868	0.57812086
523.073	0.57987447
523.279	0.58193392
523.484	0.58359842
523.689	0.58555013
523.895	0.58749257
524.1	0.58933995
524.305	0.5912311
524.511	0.59336587
524.716	0.59528719
524.921	0.59735447
525.126	0.59932029
525.332	0.60126858
525.537	0.60314558
525.742	0.60537379
525.947	0.60737237
526.153	0.6092596
526.358	0.61136233
526.563	0.61325309
526.768	0.61518925
526.973	0.61724019
527.178	0.6190043
527.383	0.62088829
527.588	0.62297641
527.794	0.62475353
527.999	0.62672447
528.204	0.62857562
528.409	0.63039242
528.614	0.63240675
528.819	0.63429089
529.024	0.63606936
529.229	0.63797336
529.434	0.640107
529.639	0.64221646
529.843	0.64424745
530.048	0.64607161
530.253	0.64813916
530.458	0.65021174
530.663	0.65224797
530.868	0.65416594
531.073	0.65594612
531.278	0.65782326
531.482	0.65969759
531.687	0.66156038
531.892	0.66342557
532.097	0.66527312
532.302	0.667108
532.506	0.66897293
532.711	0.67089737
532.916	0.67285512
533.12	0.67471575
533.325	0.67662866
533.53	0.67873485
533.734	0.68069817
533.939	0.68270633
534.144	0.68464614
534.348	0.68665827
534.553	0.68860922
534.757	0.69036892
534.962	0.69209991
535.167	0.69410536
535.371	0.69603609
535.576	0.69811204
535.78	0.70004464
535.985	0.70202743
536.189	0.70402464
536.394	0.70595448
536.598	0.7076456
536.803	0.70960914
537.007	0.71144228
537.211	0.71348958
537.416	0.71537741
537.62	0.717308
537.825	0.71931545
538.029	0.72165822
538.233	0.7235169
538.438	0.72549483
538.642	0.72703429
538.846	0.72904073
539.05	0.73091866
539.255	0.7326717
539.459	0.73432713
539.663	0.73624876
539.867	0.73812318
540.072	0.74022216
540.276	0.74185301
540.48	0.7439226
540.684	0.74581464
540.888	0.74779881
541.092	0.74961394
541.297	0.75133717
541.501	0.75318278
541.705	0.75525649
541.909	0.75694706
542.113	0.75868852
542.317	0.76062906
542.521	0.76251254
542.725	0.76450855
542.929	0.76630091
543.133	0.76809042
543.337	0.77004188
543.541	0.77202692
543.745	0.77352119
543.949	0.77540253
544.153	0.77697231
544.357	0.778636
544.56	0.78047091
544.764	0.78229385
544.968	0.78405611
545.172	0.78576311
545.376	0.78756
545.58	0.78957588
545.783	0.79171343
545.987	0.79331374
546.191	0.79499139
546.395	0.7966877
546.598	0.79866985
546.802	0.80037097
547.006	0.80199309
547.21	0.80315025
547.413	0.80499591
547.617	0.80677939
547.821	0.80859181
548.024	0.81028233
548.228	0.81197295
548.431	0.81376208
548.635	0.81576692
548.839	0.81748241
549.042	0.81918945
549.246	0.82078534
549.449	0.8225007
549.653	0.82423302
549.856	0.82586346
550.06	0.82752678
550.263	0.82924629
550.467	0.8308714
550.67	0.83267442
550.874	0.83410495
551.077	0.83582624
551.28	0.83754213
551.484	0.83928401
551.687	0.84098291
551.891	0.84275789
552.094	0.84427549
552.297	0.84612649
552.501	0.84785611
552.704	0.84946369
552.907	0.85096234
553.11	0.85231468
553.314	0.85378368
553.517	0.85511789
553.72	0.85662293
553.923	0.85800197
554.127	0.85963121
554.33	0.86098063
554.533	0.86271957
554.736	0.86418533
554.939	0.86599555
555.142	0.86772542
555.345	0.86938895
555.549	0.87115118
555.752	0.87293417
555.955	0.87448552
556.158	0.87635913
556.361	0.87785167
556.564	0.87930743
556.767	0.88072773
556.97	0.88202057
557.173	0.88354971
557.376	0.88522413
557.579	0.88643256
557.782	0.88795009
557.984	0.88959301
558.187	0.89121244
558.39	0.89274691
558.593	0.89429898
558.796	0.89547768
558.999	0.89689208
559.202	0.89822552
559.404	0.89926191
559.607	0.90060944
559.81	0.90179836
560.013	0.90299345
560.216	0.90429754
560.418	0.90581681
560.621	0.90731232
560.824	0.90896683
561.026	0.91028441
561.229	0.91174861
561.432	0.91325401
561.634	0.91470218
561.837	0.91574542
562.04	0.91714891
562.242	0.91839612
562.445	0.91978164
562.647	0.9211089
562.85	0.92220415
563.053	0.92348717
563.255	0.92509445
563.458	0.9264612
563.66	0.92788537
563.863	0.92932368
564.065	0.93085298
