Data from 1_mm_pl_60pc_Absorbance__0__16-14-38-102.txt Node

Date: Wed Mar 08 16:14:38 CET 2023
User: Ange
Spectrometer: FLMT08341
Trigger mode: 0
Integration Time (sec): 1.000000E-2
Scans to average: 400
Electric dark correction enabled: true
Nonlinearity correction enabled: false
Boxcar width: 3
XAxis mode: Wavelengths
Number of Pixels in Spectrum: 3648
>>>>>Begin Spectral Data<<<<<
345.271	0.02735474
345.487	0.02184352
345.704	0.02095622
345.921	0.0224052
346.137	0.0113288
346.354	0.01670008
346.571	-0.00647279
346.787	-0.05468215
347.004	0.14444654
347.22	-0.00869324
347.437	0.05034286
347.653	0.15322098
347.87	-0.16469709
348.086	0.21035842
348.303	-0.51775025
348.519	0.49957333
348.736	0.42239491
348.952	0.42582252
349.169	0.45508156
349.385	0.47391834
349.601	0.46783666
349.818	0.4631531
350.034	0.45771691
350.251	0.45434583
350.467	0.45902143
350.683	0.43834061
350.9	0.43677764
351.116	0.43042699
351.332	0.42515733
351.549	0.43628187
351.765	0.45077297
351.981	0.45929502
352.197	0.47811736
352.414	0.49605847
352.63	0.51045102
352.846	0.52352001
353.062	0.51237807
353.278	0.50132018
353.495	0.510669
353.711	0.51493273
353.927	0.51702924
354.143	0.51682507
354.359	0.50916353
354.575	0.50774426
354.792	0.52085475
355.008	0.51016731
355.224	0.50383482
355.44	0.49639387
355.656	0.49434527
355.872	0.50517725
356.088	0.53618908
356.304	0.54158615
356.52	0.54518198
356.736	0.54859766
356.952	0.55639529
357.168	0.55528488
357.384	0.56211831
357.6	0.54297019
357.816	0.54707448
358.032	0.55902744
358.248	0.5782184
358.464	0.57996082
358.679	0.59451487
358.895	0.59493132
359.111	0.60302232
359.327	0.59350088
359.543	0.59331231
359.759	0.5960006
359.974	0.59597061
360.19	0.59361098
360.406	0.59146096
360.622	0.58813683
360.838	0.58822573
361.053	0.59589553
361.269	0.60059826
361.485	0.60465219
361.701	0.60776283
361.916	0.60339287
362.132	0.60627131
362.348	0.61159238
362.563	0.61379982
362.779	0.60942697
362.995	0.61466677
363.21	0.6224374
363.426	0.62865371
363.641	0.63321838
363.857	0.64133556
364.073	0.6355882
364.288	0.62630417
364.504	0.63617546
364.719	0.63624949
364.935	0.6341358
365.15	0.63620607
365.366	0.6366087
365.581	0.64628001
365.797	0.65453598
366.012	0.64606379
366.228	0.63941778
366.443	0.65465099
366.658	0.65762851
366.874	0.65530642
367.089	0.6643214
367.305	0.67040083
367.52	0.67751336
367.735	0.67957978
367.951	0.66949169
368.166	0.67575749
368.381	0.69047685
368.597	0.68348392
368.812	0.69044876
369.027	0.69357086
369.243	0.70221788
369.458	0.72776308
369.673	0.72988179
369.888	0.72483533
370.104	0.72154812
370.319	0.72169656
370.534	0.71894838
370.749	0.71802706
370.964	0.71357779
371.179	0.71414494
371.395	0.71075677
371.61	0.71775623
371.825	0.71270581
372.04	0.71826204
372.255	0.71688309
372.47	0.70874074
372.685	0.69997339
372.9	0.6996082
373.115	0.69418612
373.33	0.69941338
373.545	0.6986296
373.76	0.70410096
373.975	0.70324809
374.19	0.70552074
374.405	0.71167407
374.62	0.72566887
374.835	0.73704136
375.05	0.7379553
375.265	0.74124943
375.48	0.74734967
375.695	0.76459478
375.91	0.7619284
376.125	0.74951642
376.339	0.73468298
376.554	0.73840731
376.769	0.73791271
376.984	0.73780996
377.199	0.73877552
377.414	0.74013237
377.628	0.75407472
377.843	0.76717312
378.058	0.77209978
378.273	0.78197287
378.487	0.78808116
378.702	0.79143583
378.917	0.79729565
379.131	0.79173003
379.346	0.78111233
379.561	0.77616825
379.775	0.76807599
379.99	0.75947526
380.205	0.75116152
380.419	0.74477166
380.634	0.73781469
380.848	0.74743803
381.063	0.75084278
381.278	0.75971906
381.492	0.75993941
381.707	0.76947971
381.921	0.77169263
382.136	0.78732023
382.35	0.78238559
382.565	0.78002476
382.779	0.78301075
382.994	0.78947634
383.208	0.78230447
383.422	0.79102556
383.637	0.78662641
383.851	0.79526363
384.066	0.80169912
384.28	0.80279337
384.494	0.80481627
384.709	0.81380524
384.923	0.81475574
385.137	0.81177195
385.352	0.81055873
385.566	0.81391851
385.78	0.81147598
385.995	0.81090037
386.209	0.80595542
386.423	0.81063358
386.637	0.81556965
386.852	0.80959529
387.066	0.80753215
387.28	0.80400868
387.494	0.81205733
387.708	0.8157542
387.923	0.81468427
388.137	0.81928028
388.351	0.82588235
388.565	0.83139922
388.779	0.83893623
388.993	0.84581234
389.207	0.84789545
389.421	0.85033253
389.635	0.84881315
389.85	0.84843647
390.064	0.84696356
390.278	0.84746428
390.492	0.84470368
390.706	0.84652728
390.92	0.8463594
391.134	0.852973
391.348	0.86658898
391.561	0.86576798
391.775	0.8643543
391.989	0.85979727
392.203	0.86543233
392.417	0.86991238
392.631	0.87456443
392.845	0.86759177
393.059	0.87640553
393.273	0.87631335
393.486	0.87385712
393.7	0.86551855
393.914	0.8702626
394.128	0.86542167
394.342	0.86302192
394.555	0.85427412
394.769	0.85749221
394.983	0.86214537
395.197	0.86935765
395.41	0.86702939
395.624	0.87081776
395.838	0.87302191
396.051	0.88803374
396.265	0.88540212
396.479	0.88923205
396.692	0.8899694
396.906	0.88654378
397.12	0.88447523
397.333	0.88969214
397.547	0.8827068
397.76	0.88816069
397.974	0.89006693
398.187	0.89146715
398.401	0.89904581
398.614	0.90135788
398.828	0.90103209
399.041	0.90350887
399.255	0.90287039
399.468	0.90109552
399.682	0.9022136
399.895	0.90285058
400.109	0.90232818
400.322	0.902059
400.536	0.89690867
400.749	0.90489848
400.962	0.90796089
401.176	0.90544251
401.389	0.90236322
401.602	0.8971846
401.816	0.89853521
402.029	0.90518883
402.242	0.8996421
402.456	0.89815259
402.669	0.89705975
402.882	0.89235943
403.095	0.90139293
403.309	0.90267513
403.522	0.90321177
403.735	0.90220717
403.948	0.90374697
404.161	0.91361869
404.375	0.91856195
404.588	0.91693568
404.801	0.91737403
405.014	0.91389596
405.227	0.92031697
405.44	0.92329908
405.653	0.92349413
405.866	0.91973405
406.079	0.91766117
406.293	0.91600859
406.506	0.91800565
406.719	0.91443233
406.932	0.91081943
407.145	0.90483428
407.358	0.91400769
407.571	0.91204231
407.784	0.91425433
407.996	0.91431679
408.209	0.91036114
408.422	0.9079418
408.635	0.9090405
408.848	0.90706672
409.061	0.90277567
409.274	0.90009717
409.487	0.89900526
409.7	0.90170735
409.912	0.90507305
410.125	0.90588238
410.338	0.90430995
410.551	0.90730114
410.764	0.90685935
410.976	0.90660317
411.189	0.90591121
411.402	0.90198136
411.615	0.90207379
411.827	0.90156749
412.04	0.90171204
412.253	0.90100161
412.465	0.89864654
412.678	0.8966532
412.891	0.90003962
413.103	0.89246403
413.316	0.88950575
413.529	0.89376388
413.741	0.89625149
413.954	0.8981147
414.166	0.89882662
414.379	0.8951507
414.591	0.90041409
414.804	0.89854146
415.016	0.89391541
415.229	0.89074951
415.441	0.88777279
415.654	0.88905443
415.866	0.88998401
416.079	0.89085839
416.291	0.89006947
416.504	0.89349005
416.716	0.89369509
416.928	0.8938797
417.141	0.88999596
417.353	0.89035343
417.566	0.88363899
417.778	0.88395752
417.99	0.8764964
418.203	0.87227384
418.415	0.87091857
418.627	0.87064987
418.839	0.86813691
419.052	0.87252668
419.264	0.87137162
419.476	0.8724209
419.688	0.87368694
419.901	0.87226298
420.113	0.8712145
420.325	0.86861791
420.537	0.86406947
420.749	0.86424582
420.961	0.86430535
421.174	0.86174424
421.386	0.8592922
421.598	0.85693535
421.81	0.85541201
422.022	0.85386416
422.234	0.85171294
422.446	0.84807848
422.658	0.84579892
422.87	0.84521662
423.082	0.84437187
423.294	0.84242989
423.506	0.8414002
423.718	0.83972764
423.93	0.83755735
424.142	0.83491724
424.354	0.83209034
424.566	0.82932398
424.778	0.82895797
424.99	0.82622492
425.202	0.82290609
425.414	0.82188295
425.625	0.82292145
425.837	0.81933794
426.049	0.819062
426.261	0.81590876
426.473	0.81265357
426.684	0.8112923
426.896	0.81046814
427.108	0.80581008
427.32	0.80635318
427.531	0.80257167
427.743	0.80107209
427.955	0.80253008
428.167	0.79931829
428.378	0.79631837
428.59	0.79505188
428.802	0.79239199
429.013	0.79029723
429.225	0.78686003
429.436	0.78315145
429.648	0.78249133
429.86	0.7815495
430.071	0.78001695
430.283	0.77824644
430.494	0.77576892
430.706	0.7743033
430.917	0.77166753
431.129	0.76898583
431.34	0.76527896
431.552	0.76383567
431.763	0.76084248
431.975	0.75993942
432.186	0.75667661
432.398	0.75437236
432.609	0.75002249
432.821	0.74832217
433.032	0.74545718
433.243	0.74278992
433.455	0.73980748
433.666	0.73879154
433.877	0.73768809
434.089	0.73552418
434.3	0.73216072
434.511	0.72816693
434.723	0.72557691
434.934	0.72197575
435.145	0.71718934
435.356	0.71277717
435.568	0.71080091
435.779	0.70768853
435.99	0.70417345
436.201	0.70128631
436.412	0.6986463
436.624	0.69782751
436.835	0.69661387
437.046	0.69521601
437.257	0.69317928
437.468	0.69312782
437.679	0.69194117
437.89	0.69000823
438.101	0.68813595
438.312	0.68525369
438.523	0.68198055
438.734	0.67966464
438.945	0.67679243
439.156	0.67293199
439.367	0.67086518
439.578	0.66834242
439.789	0.66474199
440	0.66267017
440.211	0.65979195
440.422	0.65721142
440.633	0.65554753
440.844	0.65200538
441.055	0.64884485
441.266	0.64741754
441.477	0.64395008
441.687	0.6418392
441.898	0.63915861
442.109	0.63567018
442.32	0.63340165
442.531	0.62992864
442.741	0.62568701
442.952	0.62324575
443.163	0.62076143
443.374	0.6176089
443.584	0.61501362
443.795	0.6123197
444.006	0.6104026
444.216	0.60827928
444.427	0.60458243
444.638	0.60133715
444.848	0.59857238
445.059	0.59597214
445.27	0.59320145
445.48	0.58972871
445.691	0.58707406
445.901	0.58533395
446.112	0.58256594
446.323	0.57953743
446.533	0.57670119
446.744	0.57350436
446.954	0.57079408
447.165	0.56809852
447.375	0.56587144
447.586	0.56352592
447.796	0.56117653
448.006	0.55840853
448.217	0.55644946
448.427	0.55412977
448.638	0.55100207
448.848	0.54760534
449.058	0.54459517
449.269	0.54207628
449.479	0.53948344
449.689	0.53668178
449.9	0.53410964
450.11	0.53188743
450.32	0.5301159
450.531	0.52736696
450.741	0.52451596
450.951	0.52248032
451.161	0.51970581
451.372	0.51734054
451.582	0.51606125
451.792	0.51313326
452.002	0.51084655
452.212	0.50823105
452.422	0.50541513
452.633	0.50271444
452.843	0.50037127
453.053	0.49649152
453.263	0.49416615
453.473	0.49140586
453.683	0.48963143
453.893	0.48688349
454.103	0.48514268
454.313	0.48247696
454.523	0.48013246
454.733	0.47767889
454.943	0.47596904
455.153	0.47356095
455.363	0.47150122
455.573	0.4692567
455.783	0.46730902
455.993	0.46521947
456.203	0.46355792
456.413	0.46116642
456.623	0.45863311
456.833	0.45698941
457.042	0.45460956
457.252	0.45258744
457.462	0.45036533
457.672	0.44794258
457.882	0.44592126
458.091	0.44400099
458.301	0.44132263
458.511	0.43915778
458.721	0.43688567
458.931	0.43493649
459.14	0.43298158
459.35	0.43128103
459.56	0.42965741
459.769	0.4283518
459.979	0.426458
460.189	0.42467773
460.398	0.42285728
460.608	0.42106808
460.817	0.41918727
461.027	0.41723957
461.237	0.41511329
461.446	0.41321244
461.656	0.41168816
461.865	0.40977537
462.075	0.40804208
462.284	0.40634513
462.494	0.40462242
462.703	0.40268434
462.913	0.40122602
463.122	0.39939512
463.332	0.39797461
463.541	0.39665394
463.751	0.39502921
463.96	0.39360729
464.169	0.39226694
464.379	0.39109594
464.588	0.38968547
464.797	0.38817807
465.007	0.38657676
465.216	0.3853432
465.425	0.38389837
465.635	0.38243127
465.844	0.38089953
466.053	0.379523
466.263	0.37825193
466.472	0.37681797
466.681	0.37544029
466.89	0.37393006
467.099	0.37274243
467.309	0.37140782
467.518	0.37028796
467.727	0.36891918
467.936	0.36773682
468.145	0.36649143
468.354	0.36558743
468.563	0.36442504
468.772	0.36329389
468.982	0.36208263
469.191	0.36121513
469.4	0.36016496
469.609	0.3591882
469.818	0.3582779
470.027	0.35728125
470.236	0.35625453
470.445	0.35542952
470.654	0.35427809
470.863	0.35319368
471.072	0.35233294
471.28	0.35117529
471.489	0.35061489
471.698	0.34966749
471.907	0.34871717
472.116	0.34803628
472.325	0.34732127
472.534	0.34659438
472.743	0.34585335
472.951	0.34521621
473.16	0.34490163
473.369	0.34431823
473.578	0.34386229
473.786	0.34352737
473.995	0.34292941
474.204	0.3425471
474.413	0.34175213
474.621	0.34100952
474.83	0.34064284
475.039	0.34013117
475.247	0.33951141
475.456	0.33906089
475.665	0.33857007
475.873	0.33821752
476.082	0.33774858
476.291	0.33721383
476.499	0.33683544
476.708	0.33629353
476.916	0.33607427
477.125	0.33567172
477.333	0.33538854
477.542	0.33527884
477.75	0.33504753
477.959	0.33493555
478.167	0.33494274
478.376	0.3345208
478.584	0.33447568
478.793	0.33426127
479.001	0.33397834
479.209	0.33386588
479.418	0.33360737
479.626	0.33344723
479.834	0.33347023
480.043	0.33344714
480.251	0.33330695
480.459	0.33332919
480.668	0.33334459
480.876	0.33335645
481.084	0.33338135
481.293	0.33335374
481.501	0.33334503
481.709	0.33359128
481.917	0.33366632
482.125	0.33377131
482.334	0.33383202
482.542	0.33391113
482.75	0.33407431
482.958	0.3342604
483.166	0.33440416
483.374	0.3346071
483.583	0.33485473
483.791	0.33522142
483.999	0.33549666
484.207	0.33590057
484.415	0.33606379
484.623	0.3363157
484.831	0.336621
485.039	0.33692459
485.247	0.33731467
485.455	0.33774802
485.663	0.33809492
485.871	0.33857569
486.079	0.33892135
486.287	0.33932601
486.495	0.33965221
486.702	0.33994318
486.91	0.34044687
487.118	0.34090637
487.326	0.34140864
487.534	0.34192895
487.742	0.34251294
487.95	0.34316339
488.157	0.34379019
488.365	0.34440108
488.573	0.34499785
488.781	0.34565174
488.988	0.34648884
489.196	0.34715347
489.404	0.3477885
489.612	0.34849116
489.819	0.34912474
490.027	0.34977958
490.235	0.35047342
490.442	0.35119177
490.65	0.35194587
490.857	0.35277362
491.065	0.35358883
491.273	0.35437536
491.48	0.3553124
491.688	0.35603768
491.895	0.35674174
492.103	0.3574991
492.31	0.35829612
492.518	0.35908149
492.725	0.36005779
492.933	0.36083257
493.14	0.36182882
493.348	0.36273084
493.555	0.36373357
493.763	0.36469976
493.97	0.36566313
494.177	0.36657025
494.385	0.3675118
494.592	0.36849567
494.8	0.3695585
495.007	0.37064814
495.214	0.37174467
495.422	0.37290307
495.629	0.37392087
495.836	0.37505811
496.043	0.37620841
496.251	0.3774692
496.458	0.37856799
496.665	0.37959683
496.872	0.38065001
497.08	0.38184942
497.287	0.38292702
497.494	0.38413047
497.701	0.38520311
497.908	0.38642089
498.115	0.38760913
498.322	0.38873612
498.53	0.38990155
498.737	0.39106302
498.944	0.39220526
499.151	0.39338757
499.358	0.39461578
499.565	0.39592564
499.772	0.39732435
499.979	0.39861203
500.186	0.40008143
500.393	0.40134556
500.6	0.40273976
500.807	0.4040067
501.014	0.40527526
501.221	0.40659727
501.427	0.40789317
501.634	0.40921022
501.841	0.41057453
502.048	0.41195334
502.255	0.41323155
502.462	0.41474775
502.669	0.41630553
502.875	0.41787663
503.082	0.41946948
503.289	0.42100936
503.496	0.4224328
503.702	0.42394846
503.909	0.42529254
504.116	0.4266674
504.323	0.4281473
504.529	0.42950889
504.736	0.43107802
504.943	0.43252137
505.149	0.43421511
505.356	0.43595111
505.563	0.43754341
505.769	0.43908926
505.976	0.44062381
506.182	0.44224613
506.389	0.44395156
506.595	0.4455603
506.802	0.44715743
507.008	0.4487887
507.215	0.45044007
507.421	0.45212258
507.628	0.45367455
507.834	0.45521302
508.041	0.45688613
508.247	0.45845444
508.454	0.46019103
508.66	0.46169881
508.866	0.46341788
509.073	0.46515436
509.279	0.46697099
509.486	0.46858436
509.692	0.47028422
509.898	0.47195297
510.105	0.4737892
510.311	0.47537265
510.517	0.47708393
510.723	0.47877087
510.93	0.48032779
511.136	0.48210786
511.342	0.483818
511.548	0.48550439
511.754	0.4874552
511.961	0.48927796
512.167	0.49110787
512.373	0.4930331
512.579	0.49485771
512.785	0.49666347
512.991	0.49851608
513.197	0.50021338
513.404	0.50198822
513.61	0.50377138
513.816	0.5054751
514.022	0.50709159
514.228	0.5087774
514.434	0.51048576
514.64	0.51228685
514.846	0.51415017
515.052	0.51600025
515.258	0.51786933
515.464	0.51977029
515.669	0.52167455
515.875	0.52362888
516.081	0.52547994
516.287	0.52733165
516.493	0.52918423
516.699	0.53097494
516.905	0.53280951
517.111	0.53463802
517.316	0.53648032
517.522	0.53845783
517.728	0.54037401
517.934	0.54228462
518.139	0.54417454
518.345	0.54595171
518.551	0.54789065
518.757	0.54979453
518.962	0.55161642
519.168	0.5535104
519.374	0.55528045
519.579	0.55728122
519.785	0.5594781
519.991	0.56142327
520.196	0.56333108
520.402	0.56521015
520.607	0.56715054
520.813	0.56924942
521.018	0.57109856
521.224	0.57267932
521.429	0.57463868
521.635	0.57656898
521.84	0.57830929
522.046	0.58014507
522.251	0.58200681
522.457	0.58390837
522.662	0.58610825
522.868	0.58800699
523.073	0.58981776
523.279	0.59188457
523.484	0.59364221
523.689	0.59547931
523.895	0.59753626
524.1	0.59935077
524.305	0.60123655
524.511	0.60331264
524.716	0.60525213
524.921	0.60728311
525.126	0.60930683
525.332	0.61126526
525.537	0.61324159
525.742	0.61537258
525.947	0.6173237
526.153	0.61922928
526.358	0.62128353
526.563	0.62312347
526.768	0.62499578
526.973	0.62697339
527.178	0.62881936
527.383	0.63074681
527.588	0.63277679
527.794	0.63451593
527.999	0.6364295
528.204	0.63827468
528.409	0.63998778
528.614	0.64181514
528.819	0.64368206
529.024	0.64542331
529.229	0.64724666
529.434	0.6493389
529.639	0.65122341
529.843	0.65331885
530.048	0.65523107
530.253	0.65705422
530.458	0.65905141
530.663	0.66105697
530.868	0.66290111
531.073	0.66474164
531.278	0.66647181
531.482	0.6683111
531.687	0.67015464
531.892	0.67198647
532.097	0.67365099
532.302	0.6755232
532.506	0.67732953
532.711	0.67914288
532.916	0.68088713
533.12	0.68270762
533.325	0.68445253
533.53	0.68661463
533.734	0.68833908
533.939	0.69035113
534.144	0.69223769
534.348	0.6942517
534.553	0.69607988
534.757	0.69786636
534.962	0.69953899
535.167	0.70154069
535.371	0.70330429
535.576	0.70535749
535.78	0.70711456
535.985	0.70909638
536.189	0.71099275
536.394	0.71287664
536.598	0.71445958
536.803	0.71624598
537.007	0.71782394
537.211	0.7198187
537.416	0.7215028
537.62	0.72329249
537.825	0.72505503
538.029	0.72725191
538.233	0.72898392
538.438	0.73078147
538.642	0.73223711
538.846	0.73424479
539.05	0.7360529
539.255	0.73769625
539.459	0.73914335
539.663	0.74086933
539.867	0.74276486
540.072	0.74470011
540.276	0.74610631
540.48	0.74795103
540.684	0.74975808
540.888	0.75169297
541.092	0.75345278
541.297	0.75507271
541.501	0.75663447
541.705	0.75857423
541.909	0.76009297
542.113	0.76165846
542.317	0.76322529
542.521	0.76496204
542.725	0.76675579
542.929	0.76849639
543.133	0.77005648
543.337	0.77180903
543.541	0.77357235
543.745	0.77506034
543.949	0.7766176
544.153	0.77809624
544.357	0.77955308
544.56	0.78121968
544.764	0.78287783
544.968	0.78445243
545.172	0.78594844
545.376	0.78768376
545.58	0.78930043
545.783	0.7911461
545.987	0.79255176
546.191	0.79405965
546.395	0.79563777
546.598	0.7974403
546.802	0.79902799
547.006	0.80058524
547.21	0.80172879
547.413	0.80344459
547.617	0.80501278
547.821	0.8066077
548.024	0.80817251
548.228	0.80956599
548.431	0.8111558
548.635	0.81292979
548.839	0.81442031
549.042	0.81591088
549.246	0.81726043
549.449	0.81869515
549.653	0.82024652
549.856	0.82160544
550.06	0.82297688
550.263	0.82442089
550.467	0.82586298
550.67	0.82753058
550.874	0.82883872
551.077	0.83032054
551.28	0.83194856
551.484	0.83356459
551.687	0.83498572
551.891	0.83654875
552.094	0.83772557
552.297	0.83924173
552.501	0.84079592
552.704	0.84207146
552.907	0.84336065
553.11	0.84454189
553.314	0.8457099
553.517	0.84685603
553.72	0.84811567
553.923	0.84912354
554.127	0.85044832
554.33	0.85144149
554.533	0.85289898
554.736	0.85413655
554.939	0.85565944
555.142	0.85711887
555.345	0.8586873
555.549	0.86017539
555.752	0.86172344
555.955	0.86305908
556.158	0.86457211
556.361	0.86580277
556.564	0.86688729
556.767	0.86789838
556.97	0.86898969
557.173	0.87031449
557.376	0.87174368
557.579	0.87281927
557.782	0.87411813
557.984	0.87560614
558.187	0.87702905
558.39	0.87828237
558.593	0.87951291
558.796	0.88043295
558.999	0.88151513
559.202	0.88257422
559.404	0.8833579
559.607	0.88433097
559.81	0.88523263
560.013	0.88618122
560.216	0.88723158
560.418	0.88846965
560.621	0.88967251
560.824	0.89102282
561.026	0.89219568
561.229	0.89337055
561.432	0.89453557
561.634	0.89574868
561.837	0.89658871
562.04	0.89764015
562.242	0.89863385
562.445	0.89968348
562.647	0.90078191
562.85	0.90151689
563.053	0.90233584
563.255	0.90353734
563.458	0.90466376
563.66	0.90574837
563.863	0.90692845
