Data from 1_mm_pl_100pc_Absorbance__0__16-20-16-314.txt Node

Date: Wed Mar 08 16:20:16 CET 2023
User: Ange
Spectrometer: FLMT08341
Trigger mode: 0
Integration Time (sec): 1.000000E-2
Scans to average: 400
Electric dark correction enabled: true
Nonlinearity correction enabled: false
Boxcar width: 3
XAxis mode: Wavelengths
Number of Pixels in Spectrum: 3648
>>>>>Begin Spectral Data<<<<<
345.271	0.01996026
345.487	0.01561239
345.704	0.00392738
345.921	0.00855198
346.137	-0.00075017
346.354	-0.01111653
346.571	-0.04439589
346.787	-0.13819633
347.004	0.0667472
347.22	-0.08730344
347.437	-0.02190719
347.653	0.04033181
347.87	0.055907
348.086	0.99324516
348.303	-0.68888608
348.519	0.29430965
348.736	0.27863515
348.952	0.28818273
349.169	0.30363451
349.385	0.31471742
349.601	0.30813399
349.818	0.30412373
350.034	0.30058278
350.251	0.29888139
350.467	0.29696526
350.683	0.28600018
350.9	0.28435106
351.116	0.28017416
351.332	0.27744131
351.549	0.2829376
351.765	0.28609076
351.981	0.29131217
352.197	0.29890522
352.414	0.30400455
352.63	0.31102714
352.846	0.31487678
353.062	0.31055649
353.278	0.30261261
353.495	0.30646892
353.711	0.3068457
353.927	0.31100546
354.143	0.31153532
354.359	0.3080911
354.575	0.3058134
354.792	0.31678331
355.008	0.31176774
355.224	0.3066612
355.44	0.3032593
355.656	0.29951117
355.872	0.30346357
356.088	0.31824974
356.304	0.31548271
356.52	0.31753565
356.736	0.32167044
356.952	0.31947702
357.168	0.31839007
357.384	0.31961906
357.6	0.30836519
357.816	0.3094086
358.032	0.31068336
358.248	0.31694285
358.464	0.31636463
358.679	0.31946231
358.895	0.31833425
359.111	0.32299726
359.327	0.31965142
359.543	0.32037927
359.759	0.32291322
359.974	0.32352803
360.19	0.32213527
360.406	0.32095078
360.622	0.31883
360.838	0.3183814
361.053	0.31929724
361.269	0.31691334
361.485	0.31914459
361.701	0.32185214
361.916	0.32082266
362.132	0.32151052
362.348	0.32407225
362.563	0.32328804
362.779	0.32031917
362.995	0.31912375
363.21	0.3200779
363.426	0.32205684
363.641	0.32132916
363.857	0.32349075
364.073	0.3226253
364.288	0.32117478
364.504	0.3264196
364.719	0.32569095
364.935	0.32472089
365.15	0.32585361
365.366	0.32543671
365.581	0.32775096
365.797	0.32848831
366.012	0.32455077
366.228	0.32260745
366.443	0.32639634
366.658	0.3259001
366.874	0.32371882
367.089	0.32418473
367.305	0.32678471
367.52	0.32767068
367.735	0.3289355
367.951	0.32644203
368.166	0.32668822
368.381	0.33020255
368.597	0.32934431
368.812	0.3293246
369.027	0.33090069
369.243	0.33040619
369.458	0.33494403
369.673	0.33677685
369.888	0.33513343
370.104	0.33316325
370.319	0.33410787
370.534	0.33279856
370.749	0.33304769
370.964	0.33316425
371.179	0.33175329
371.395	0.33064572
371.61	0.33302675
371.825	0.33038685
372.04	0.33022681
372.255	0.32829864
372.47	0.32406724
372.685	0.32131193
372.9	0.32006035
373.115	0.31737094
373.33	0.3177842
373.545	0.31696702
373.76	0.31896969
373.975	0.31817006
374.19	0.31881573
374.405	0.31996412
374.62	0.32212285
374.835	0.32383016
375.05	0.32305861
375.265	0.32186845
375.48	0.32230321
375.695	0.32512802
375.91	0.32317631
376.125	0.32043571
376.339	0.31648326
376.554	0.31695441
376.769	0.31622408
376.984	0.31484396
377.199	0.31357867
377.414	0.3121843
377.628	0.31388117
377.843	0.31425756
378.058	0.31436271
378.273	0.31489368
378.487	0.31535476
378.702	0.31351637
378.917	0.31297232
379.131	0.31003875
379.346	0.30756157
379.561	0.30475409
379.775	0.30195951
379.99	0.29936566
380.205	0.29721917
380.419	0.29566236
380.634	0.29295471
380.848	0.29402747
381.063	0.29321847
381.278	0.29453675
381.492	0.29270749
381.707	0.29374415
381.921	0.29270753
382.136	0.29425754
382.35	0.29142345
382.565	0.29016942
382.779	0.28857404
382.994	0.28796688
383.208	0.28494822
383.422	0.28556122
383.637	0.28451253
383.851	0.28521442
384.066	0.2847523
384.28	0.28397172
384.494	0.28394574
384.709	0.28418136
384.923	0.28315648
385.137	0.28044946
385.352	0.27865663
385.566	0.2778996
385.78	0.27586423
385.995	0.27372505
386.209	0.27147204
386.423	0.2703943
386.637	0.26970005
386.852	0.26784293
387.066	0.26601109
387.28	0.26402508
387.494	0.26411786
387.708	0.26312645
387.923	0.26132878
388.137	0.2608343
388.351	0.26062406
388.565	0.26047469
388.779	0.26013757
388.993	0.259187
389.207	0.2583723
389.421	0.25697189
389.635	0.25463891
389.85	0.25276301
390.064	0.25115176
390.278	0.24939744
390.492	0.24772047
390.706	0.24649939
390.92	0.24520607
391.134	0.24478586
391.348	0.24441789
391.561	0.24216697
391.775	0.24057863
391.989	0.23845634
392.203	0.23751755
392.417	0.23653298
392.631	0.23550231
392.845	0.23341368
393.059	0.23279889
393.273	0.23199441
393.486	0.23008234
393.7	0.22731882
393.914	0.22618481
394.128	0.22437228
394.342	0.22291636
394.555	0.2206427
394.769	0.21885266
394.983	0.21833452
395.197	0.21793011
395.41	0.21633395
395.624	0.21536014
395.838	0.21415804
396.051	0.21444276
396.265	0.2130117
396.479	0.21244428
396.692	0.21093917
396.906	0.20924965
397.12	0.2075415
397.333	0.20621185
397.547	0.20385884
397.76	0.20302476
397.974	0.20108302
398.187	0.19985912
398.401	0.19910818
398.614	0.19827634
398.828	0.19686602
399.041	0.19599126
399.255	0.19461781
399.468	0.19318786
399.682	0.19195133
399.895	0.19064308
400.109	0.18891048
400.322	0.18789262
400.536	0.1860674
400.749	0.18539201
400.962	0.18396511
401.176	0.18238978
401.389	0.18100029
401.602	0.17931632
401.816	0.17811426
402.029	0.17714872
402.242	0.17529894
402.456	0.1744755
402.669	0.17318849
402.882	0.17112763
403.095	0.17049531
403.309	0.16922994
403.522	0.16823105
403.735	0.16700361
403.948	0.16585439
404.161	0.16550953
404.375	0.16512379
404.588	0.16395216
404.801	0.16281647
405.014	0.16108656
405.227	0.1603856
405.44	0.15903062
405.653	0.15734131
405.866	0.15602191
406.079	0.15456762
406.293	0.15330023
406.506	0.1523917
406.719	0.15113925
406.932	0.15027806
407.145	0.14898848
407.358	0.14830272
407.571	0.14718959
407.784	0.14642775
407.996	0.1455698
408.209	0.14450415
408.422	0.14327447
408.635	0.14267285
408.848	0.14162576
409.061	0.14073204
409.274	0.13948992
409.487	0.1383474
409.7	0.13715802
409.912	0.13648016
410.125	0.1355651
410.338	0.13448406
410.551	0.13341854
410.764	0.13274812
410.976	0.13206831
411.189	0.13147736
411.402	0.13044195
411.615	0.12952986
411.827	0.12891367
412.04	0.1283249
412.253	0.12744469
412.465	0.12676959
412.678	0.12563965
412.891	0.12523912
413.103	0.12425276
413.316	0.12337204
413.529	0.12297258
413.741	0.12219691
413.954	0.12139823
414.166	0.12097792
414.379	0.11993981
414.591	0.1195815
414.804	0.11883539
415.016	0.11814184
415.229	0.11750347
415.441	0.11683972
415.654	0.11638966
415.866	0.11603435
416.079	0.11560677
416.291	0.11488102
416.504	0.11430156
416.716	0.11380588
416.928	0.11326677
417.141	0.11238964
417.353	0.11173715
417.566	0.11102839
417.778	0.11063227
417.99	0.10988434
418.203	0.10945634
418.415	0.10893462
418.627	0.10860714
418.839	0.10834916
419.052	0.10802191
419.264	0.10755864
419.476	0.10717366
419.688	0.1065576
419.901	0.10619854
420.113	0.10570797
420.325	0.10510003
420.537	0.10434661
420.749	0.10401247
420.961	0.10358611
421.174	0.10313376
421.386	0.1026741
421.598	0.10229952
421.81	0.10211649
422.022	0.10192312
422.234	0.10152883
422.446	0.10130172
422.658	0.10109433
422.87	0.10080161
423.082	0.10052596
423.294	0.09988455
423.506	0.09955321
423.718	0.0993826
423.93	0.09912853
424.142	0.09867538
424.354	0.09830627
424.566	0.09797869
424.778	0.09810093
424.99	0.0977871
425.202	0.0973672
425.414	0.09707178
425.625	0.09719549
425.837	0.0970027
426.049	0.09714929
426.261	0.09676071
426.473	0.09663686
426.684	0.09680009
426.896	0.09678298
427.108	0.09621629
427.32	0.09631299
427.531	0.09606346
427.743	0.09617203
427.955	0.09624385
428.167	0.09598689
428.378	0.09600674
428.59	0.09641224
428.802	0.09624087
429.013	0.09629625
429.225	0.09620281
429.436	0.09622534
429.648	0.09639581
429.86	0.09625776
430.071	0.09616876
430.283	0.09627203
430.494	0.09627924
430.706	0.09630815
430.917	0.09634437
431.129	0.09637315
431.34	0.09662986
431.552	0.09682344
431.763	0.0968715
431.975	0.09687283
432.186	0.09697618
432.398	0.09710195
432.609	0.09708965
432.821	0.09702463
433.032	0.09691983
433.243	0.09692336
433.455	0.09708328
433.666	0.09707342
433.877	0.09693336
434.089	0.09709228
434.3	0.09732673
434.511	0.09740886
434.723	0.09743707
434.934	0.09730571
435.145	0.09731435
435.356	0.09755966
435.568	0.09746906
435.779	0.09731331
435.99	0.09731551
436.201	0.09751123
436.412	0.0975959
436.624	0.09773443
436.835	0.0981245
437.046	0.09836805
437.257	0.09847942
437.468	0.09864544
437.679	0.09872143
437.89	0.09907033
438.101	0.09936696
438.312	0.0993636
438.523	0.0995472
438.734	0.09967406
438.945	0.10000587
439.156	0.10024575
439.367	0.10056068
439.578	0.10089429
439.789	0.10092307
440	0.10108999
440.211	0.10138426
440.422	0.10158119
440.633	0.10188794
440.844	0.10199372
441.055	0.10209024
441.266	0.10244289
441.477	0.1026305
441.687	0.10288187
441.898	0.10325205
442.109	0.10340944
442.32	0.10379933
442.531	0.10394249
442.741	0.10421621
442.952	0.10457659
443.163	0.10519173
443.374	0.10545862
443.584	0.10572406
443.795	0.10594596
444.006	0.10633464
444.216	0.10659099
444.427	0.10688126
444.638	0.1070259
444.848	0.10725775
445.059	0.10760534
445.27	0.10792942
445.48	0.1081273
445.691	0.10849663
445.901	0.10880339
446.112	0.10914396
446.323	0.10943543
446.533	0.10978108
446.744	0.11004881
446.954	0.11037227
447.165	0.11064385
447.375	0.11099767
447.586	0.11125033
447.796	0.11163135
448.006	0.11198459
448.217	0.11250114
448.427	0.1131301
448.638	0.11337433
448.848	0.11372854
449.058	0.11416308
449.269	0.11463667
449.479	0.11491728
449.689	0.11520026
449.9	0.11553687
450.11	0.11619624
450.32	0.11665669
450.531	0.11691928
450.741	0.11710431
450.951	0.11763487
451.161	0.11794063
451.372	0.11813896
451.582	0.11856143
451.792	0.11877342
452.002	0.1191871
452.212	0.11959037
452.422	0.11993029
452.633	0.12033888
452.843	0.12085518
453.053	0.12114833
453.263	0.12166711
453.473	0.12210372
453.683	0.1226046
453.893	0.12305029
454.103	0.12354814
454.313	0.12387676
454.523	0.12425075
454.733	0.12473591
454.943	0.12521456
455.153	0.12552869
455.363	0.12584131
455.573	0.12639126
455.783	0.12692579
455.993	0.1273671
456.203	0.12786726
456.413	0.12831262
456.623	0.12893487
456.833	0.12960094
457.042	0.12986079
457.252	0.13034912
457.462	0.13100195
457.672	0.13149992
457.882	0.13190882
458.091	0.13232302
458.301	0.1327966
458.511	0.13342705
458.721	0.1339364
458.931	0.13434385
459.14	0.13466192
459.35	0.13530617
459.56	0.13589658
459.769	0.13655769
459.979	0.13701663
460.189	0.1375368
460.398	0.13804181
460.608	0.1386689
460.817	0.13919248
461.027	0.1396678
461.237	0.14000931
461.446	0.14057869
461.656	0.14108301
461.865	0.14151331
462.075	0.14196583
462.284	0.14245657
462.494	0.14302129
462.703	0.1434988
462.913	0.14415429
463.122	0.1449409
463.332	0.14563914
463.541	0.1462757
463.751	0.14692325
463.96	0.14744261
464.169	0.14813375
464.379	0.14874962
464.588	0.14921059
464.797	0.14982663
465.007	0.1505003
465.216	0.15112447
465.425	0.15184375
465.635	0.1524863
465.844	0.15311728
466.053	0.15380582
466.263	0.15451957
466.472	0.15524517
466.681	0.15596864
466.89	0.15656902
467.099	0.15731197
467.309	0.15799851
467.518	0.15865204
467.727	0.1593622
467.936	0.15995848
468.145	0.16052531
468.354	0.16130371
468.563	0.16201974
468.772	0.16264788
468.982	0.16334017
469.191	0.16403272
469.4	0.16479332
469.609	0.16555331
469.818	0.16628889
470.027	0.16688753
470.236	0.16756966
470.445	0.16824663
470.654	0.16890894
470.863	0.16954394
471.072	0.17041185
471.28	0.17117302
471.489	0.17214361
471.698	0.17300611
471.907	0.17387985
472.116	0.17476978
472.325	0.1756263
472.534	0.17635647
472.743	0.17714117
472.951	0.1780667
473.16	0.17904625
473.369	0.17993318
473.578	0.18079586
473.786	0.18187117
473.995	0.18275101
474.204	0.18363004
474.413	0.18426972
474.621	0.18499779
474.83	0.18582262
475.039	0.18674877
475.247	0.18755773
475.456	0.18861801
475.665	0.18967708
475.873	0.19079176
476.082	0.19183461
476.291	0.19284362
476.499	0.1937539
476.708	0.1946006
476.916	0.1955564
477.125	0.19649466
477.333	0.1975078
477.542	0.1985601
477.75	0.19959925
477.959	0.20073558
478.167	0.20190116
478.376	0.20277477
478.584	0.20380218
478.793	0.20466075
479.001	0.20564334
479.209	0.20656127
479.418	0.20743745
479.626	0.20846474
479.834	0.20966059
480.043	0.21081573
480.251	0.21196655
480.459	0.21309923
480.668	0.21430286
480.876	0.21544839
481.084	0.2166605
481.293	0.21780581
481.501	0.21896146
481.709	0.22029491
481.917	0.22160338
482.125	0.22275375
482.334	0.22404626
482.542	0.22525696
482.75	0.22654884
482.958	0.22782018
483.166	0.22902126
483.374	0.23013207
483.583	0.23145703
483.791	0.23277322
483.999	0.23404589
484.207	0.2353102
484.415	0.2365459
484.623	0.23783071
484.831	0.23916434
485.039	0.24047811
485.247	0.24181973
485.455	0.24319962
485.663	0.24450642
485.871	0.24581271
486.079	0.24709113
486.287	0.24845979
486.495	0.2497262
486.702	0.25095416
486.91	0.25229371
487.118	0.25367345
487.326	0.2550062
487.534	0.25638539
487.742	0.25770977
487.95	0.25913043
488.157	0.26067337
488.365	0.26209738
488.573	0.26346758
488.781	0.26500511
488.988	0.2666507
489.196	0.26826258
489.404	0.26977734
489.612	0.27123399
489.819	0.27274583
490.027	0.27420366
490.235	0.27568357
490.442	0.27722129
490.65	0.27865438
490.857	0.28012078
491.065	0.28168282
491.273	0.28323948
491.48	0.28494226
491.688	0.28644409
491.895	0.28791434
492.103	0.28941937
492.31	0.29104593
492.518	0.29269834
492.725	0.29439069
492.933	0.29601395
493.14	0.29775631
493.348	0.29944928
493.555	0.30125479
493.763	0.30296751
493.97	0.30462306
494.177	0.30621244
494.385	0.30788093
494.592	0.30969352
494.8	0.31142166
495.007	0.31315207
495.214	0.31493725
495.422	0.31672641
495.629	0.31847591
495.836	0.3202084
496.043	0.32194793
496.251	0.32376074
496.458	0.32553816
496.665	0.32721793
496.872	0.32896579
497.08	0.33085106
497.287	0.33266102
497.494	0.33443971
497.701	0.33633044
497.908	0.33825531
498.115	0.34008215
498.322	0.3419901
498.53	0.34379575
498.737	0.34566783
498.944	0.34745398
499.151	0.34923993
499.358	0.3509986
499.565	0.35286386
499.772	0.35472671
499.979	0.35656618
500.186	0.35856813
500.393	0.36052674
500.6	0.36247446
500.807	0.36440152
501.014	0.3663415
501.221	0.36825504
501.427	0.3702067
501.634	0.37208196
501.841	0.3739707
502.048	0.37584461
502.255	0.3776754
502.462	0.37971741
502.669	0.38180373
502.875	0.38387771
503.082	0.3858675
503.289	0.38788702
503.496	0.38989976
503.702	0.39195494
503.909	0.39395849
504.116	0.39592751
504.323	0.39797558
504.529	0.40001382
504.736	0.40204689
504.943	0.40398928
505.149	0.40612838
505.356	0.40821981
505.563	0.41033601
505.769	0.41235161
505.976	0.41436821
506.182	0.41654684
506.389	0.41880146
506.595	0.42099791
506.802	0.4230176
507.008	0.42503819
507.215	0.42720391
507.421	0.42939608
507.628	0.43148141
507.834	0.43349424
508.041	0.43563916
508.247	0.43780589
508.454	0.43998671
508.66	0.44193271
508.866	0.44409264
509.073	0.44626834
509.279	0.44848205
509.486	0.45046252
509.692	0.45260732
509.898	0.45479943
510.105	0.45700166
510.311	0.45906802
510.517	0.46114904
510.723	0.46327709
510.93	0.46531613
511.136	0.46746093
511.342	0.46957735
511.548	0.47174713
511.754	0.47401839
511.961	0.47629133
512.167	0.47854093
512.373	0.48081942
512.579	0.48294901
512.785	0.4850969
512.991	0.48727722
513.197	0.48935766
513.404	0.49147743
513.61	0.49362547
513.816	0.49567767
514.022	0.49789345
514.228	0.50003093
514.434	0.50211953
514.64	0.50441379
514.846	0.50670157
515.052	0.50892009
515.258	0.51107039
515.464	0.51314992
515.669	0.5153235
515.875	0.51754592
516.081	0.51954966
516.287	0.52166723
516.493	0.52385832
516.699	0.52603274
516.905	0.52817441
517.111	0.53027799
517.316	0.53247975
517.522	0.53472273
517.728	0.5369631
517.934	0.53904429
518.139	0.54125113
518.345	0.5433025
518.551	0.54550505
518.757	0.54751764
518.962	0.54958744
519.168	0.55163994
519.374	0.55364163
519.579	0.55571965
519.785	0.55808663
519.991	0.56021204
520.196	0.5623628
520.402	0.56443465
520.607	0.56655135
520.813	0.56875921
521.018	0.57078484
521.224	0.57251798
521.429	0.57461832
521.635	0.57665642
521.84	0.57854312
522.046	0.58050719
522.251	0.58243571
522.457	0.58459492
522.662	0.58695618
522.868	0.58901451
523.073	0.59112723
523.279	0.59331691
523.484	0.59521309
523.689	0.59741709
523.895	0.59947731
524.1	0.60146148
524.305	0.60338575
524.511	0.605384
524.716	0.60749477
524.921	0.60969142
525.126	0.61166682
525.332	0.61362306
525.537	0.61555702
525.742	0.61781488
525.947	0.61986374
526.153	0.62171996
526.358	0.62364761
526.563	0.62542984
526.768	0.62719634
526.973	0.62913876
527.178	0.63084585
527.383	0.63261768
527.588	0.63453434
527.794	0.6363305
527.999	0.63831189
528.204	0.64032044
528.409	0.64213505
528.614	0.64412769
528.819	0.6461145
529.024	0.64787698
529.229	0.64975422
529.434	0.65176552
529.639	0.65365613
529.843	0.65551186
530.048	0.65720774
530.253	0.65898962
530.458	0.66091551
530.663	0.66269255
530.868	0.66441354
531.073	0.66598749
531.278	0.66761339
531.482	0.66926233
531.687	0.67086288
531.892	0.67246062
532.097	0.67395485
532.302	0.67555248
532.506	0.67719428
532.711	0.67873693
532.916	0.68034724
533.12	0.68200107
533.325	0.68357447
533.53	0.68541421
533.734	0.68691553
533.939	0.68863468
534.144	0.69037773
534.348	0.69205234
534.553	0.69365333
534.757	0.69505848
534.962	0.69654733
535.167	0.69826657
535.371	0.69971186
535.576	0.70138541
535.78	0.70288529
535.985	0.70439892
536.189	0.70600112
536.394	0.70753995
536.598	0.70873844
536.803	0.71021041
537.007	0.71151521
537.211	0.71306852
537.416	0.71439348
537.62	0.71581263
537.825	0.71709113
538.029	0.71892106
538.233	0.7202961
538.438	0.72181698
538.642	0.72294001
538.846	0.72440588
539.05	0.72568764
539.255	0.72701035
539.459	0.72804325
539.663	0.72933172
539.867	0.73053754
540.072	0.73193289
540.276	0.7330926
540.48	0.7346469
540.684	0.73597727
540.888	0.73746924
541.092	0.73870343
541.297	0.73982883
541.501	0.74099654
541.705	0.74221783
541.909	0.74307201
542.113	0.74405009
542.317	0.74506329
542.521	0.74622226
542.725	0.74746304
542.929	0.74863155
543.133	0.74984439
543.337	0.75115988
543.541	0.75237425
543.745	0.75327842
543.949	0.75430214
544.153	0.75519987
544.357	0.75601402
544.56	0.75697136
544.764	0.75783043
544.968	0.75867252
545.172	0.75948324
545.376	0.76050367
545.58	0.76147087
545.783	0.7627698
545.987	0.76361646
546.191	0.76465087
546.395	0.76573712
546.598	0.76689897
546.802	0.76779653
547.006	0.76866219
547.21	0.76894246
547.413	0.76984155
547.617	0.77059887
547.821	0.77130245
548.024	0.77199206
548.228	0.77254989
548.431	0.77340614
548.635	0.77447702
548.839	0.77523471
549.042	0.77604134
549.246	0.77670428
549.449	0.7774759
549.653	0.77840706
549.856	0.77890746
550.06	0.77952463
550.263	0.78013624
550.467	0.78072264
550.67	0.7815501
550.874	0.78201132
551.077	0.78268471
551.28	0.78351077
551.484	0.78420834
551.687	0.78491977
551.891	0.78558429
552.094	0.78596074
552.297	0.78668521
552.501	0.78722339
552.704	0.787627
552.907	0.78796073
553.11	0.78810802
553.314	0.78844087
553.517	0.7886063
553.72	0.78884925
553.923	0.78901247
554.127	0.78934671
554.33	0.78957808
554.533	0.79011998
554.736	0.79038419
554.939	0.79103992
555.142	0.79172806
555.345	0.79232925
555.549	0.79297285
555.752	0.79360537
555.955	0.79401345
556.158	0.79458799
556.361	0.79489044
556.564	0.7950188
556.767	0.79531096
556.97	0.79549197
557.173	0.79584614
557.376	0.79621326
557.579	0.79626361
557.782	0.79663847
557.984	0.79704663
558.187	0.79736999
558.39	0.79752876
558.593	0.79773423
558.796	0.79773334
558.999	0.79783572
559.202	0.79772024
559.404	0.79751967
559.607	0.79731408
559.81	0.79715398
560.013	0.79704976
560.216	0.79698767
560.418	0.7972801
560.621	0.79759092
560.824	0.79784329
561.026	0.79795916
561.229	0.79805318
561.432	0.79818764
561.634	0.79832985
561.837	0.79802176
562.04	0.79809318
562.242	0.79795903
562.445	0.79804609
562.647	0.79819472
562.85	0.79801025
563.053	0.79778747
563.255	0.79781982
563.458	0.7975443
563.66	0.7975213
563.863	0.7975238
564.065	0.79736529
